Time (s),F3 (µV),F4 (µV),Cz (µV),Pz (µV)
0.0,2.4835707650561636,2.853064986097655,-2.1187984101135164,8.628468964073853
0.004,1.8208944031325545,9.347690976287018,2.706727201377826,5.426759061679423
0.008,8.256528433064208,7.254705531394435,0.6568576188842314,12.210366622125616
0.012,15.12642873807798,10.052289326989234,12.040491160066589,10.479398859781556
0.016,8.814732152103671,11.592315841013706,20.55070391914903,5.711603618577794
0.02,11.263809573496836,16.409360527965887,12.649969730519093,-5.331727149619833
0.024,22.748143156388704,38.334125090642196,25.202947823818395,2.280610770824555
0.028,21.069319804490398,32.3289105437697,22.084619119995462,-7.559278549858735
0.032,17.22131141218536,21.274496442658254,14.4253744394652,-11.706809458584413
0.036000000000000004,24.56858855047647,22.705753923327954,14.702616668826547,-12.317808787182447
0.04,21.770595241023454,32.350132161440605,19.74731408405463,-0.786258129834069
0.044,23.930082730213496,32.62033226118501,11.030230121222893,5.178716651982974
0.048,29.573258814167996,31.893371164027045,2.5505829457768208,-1.4008591840065405
0.052000000000000005,20.83011366144128,26.47753723726525,-3.695081256091007,0.1630627520899104
0.056,23.728208915907047,25.098528385795063,-6.97944570143526,0.9593389720308343
0.06,31.415917650229567,24.754794904070465,-14.314522835560977,11.85326597068188
0.064,30.951295642723224,20.409821054494202,-25.93401238411086,18.737400507612605
0.068,39.28380569978155,5.295328538290402,-7.885651496646743,6.468430492632102
0.07200000000000001,34.77430122922489,11.282269276922548,-18.869120018576766,-8.21373467691934
0.076,33.75544402918274,3.9315258942181943,-17.969798242952745,2.096916023434587
0.08,49.544640119708525,4.636054101471683,-19.310669075287617,-0.9508539656744812
0.084,42.380306231043605,14.172392149716924,-20.56214251366324,-16.977498726589435
0.088,45.0297122310028,-3.4132834418867475,-14.620564523317633,-9.097846365967952
0.092,38.63831769997859,-11.195956725078274,-17.63204729300586,-6.187149174339657
0.096,43.99453350020469,-9.178388308758372,6.411634746969432,-5.18307325106184
0.1,48.10743876330701,-15.220118132728127,-6.172559992111985,-3.9538545954267734
0.10400000000000001,42.51411405455218,-18.979026641706273,-0.18603367593879927,9.897222858834935
0.108,50.741896270138035,-21.012756580047938,7.433777460102295,6.426380525176732
0.112,46.33110376079938,-16.186018968900896,20.131320742835662,2.5543364707830554
0.116,48.22209677703404,-33.94415825341551,16.95910350635357,-1.1991019036882111
0.12,46.89280336026659,-27.10045713780339,12.840451345750758,12.182100122921284
0.124,59.25744313273549,-34.61058982912537,26.23222637235213,4.336652217998632
0.128,49.89698750833979,-27.03077608388901,23.300748148501178,-3.2413777912009425
0.132,44.518125812379125,-33.55488172242869,20.78871583540265,-9.90650561201192
0.136,53.635795845348504,-29.54406924665295,18.988936061369973,-12.467864578302525
0.14,43.01014428657932,-26.805287336249982,23.72751454876172,-14.889248405159595
0.14400000000000002,49.625904620757474,-17.74845782535956,18.28796552887412,-9.00274928208631
0.148,38.12773883146991,-14.819406627371283,-0.9269120437303631,-13.087334947249447
0.152,40.508596550151076,-21.983825781070806,5.612760292769698,-1.1934193956940442
0.156,47.23816652106852,-11.466539450116832,-5.446650104899043,5.290783477531407
0.16,48.93368552327803,-11.008595888691497,-9.26022596516071,12.559965398903628
0.164,44.971402727697516,-9.303375998913125,-23.871619013732428,9.623240190420068
0.168,42.29809139774141,0.42224429327124,-18.948469876261374,11.679747997135683
0.17200000000000001,40.02427648184419,4.448885473153128,-23.7098629662566,10.426921052413915
0.176,32.6857392917067,22.4728701269631,-15.820240494098886,4.037518133477482
0.18,34.92644109681592,16.617409349854928,-13.665727823889052,-3.525303286031941
0.184,34.57246201310976,11.349821427066978,-27.25899026512186,-8.988957128756274
0.188,40.41810962103703,18.78540072578248,-13.801116438595121,-14.884207326350513
0.192,35.018684819554885,29.59709399866251,-4.025765958063035,-4.743558998123563
0.196,22.569367287721356,37.25745658888754,-5.907192554864337,3.5812001700904776
0.2,31.009682461597635,20.601778927664814,3.6453182250118124,1.7105301982520813
0.20400000000000001,25.39430593463188,20.200956400540814,6.729625081432514,14.403832483147765
0.20800000000000002,21.796550080258235,39.3524572029734,11.343374641797439,0.8154207147147341
0.212,26.03737447527874,31.66191365775406,12.334367228232267,4.2094503603850075
0.216,25.873776662143968,24.414190011139453,10.803654489361744,13.324278063401515
0.22,23.0626282298149,29.817957004592778,13.413479588777932,7.199303573690996
0.224,11.851092874247293,11.739138280789989,23.50729714084202,7.822243218502084
0.228,12.10153489661018,22.142271053731026,19.74303629216819,-3.7586037304804805
0.232,12.869855204486871,20.469846702936458,17.403979826284264,-12.045009540399558
0.23600000000000002,13.62887858437559,19.730046746761957,13.29081464390401,-10.890838718312102
0.24,3.8707904889887774,5.97425681907765,10.229760818445712,-17.17398501757021
0.244,2.8380453930775666,7.156558635498246,12.59705002613426,-12.488424424772063
0.248,-4.27517009786325,-2.3673189644599253,0.8304442619459493,2.3753211179415046
0.252,-7.2375378925702325,-0.9828853874664041,-9.211988237793902,6.850835943996572
0.256,0.2962888355743507,-11.204854440296549,-3.644232175992708,8.660492483317283
0.26,0.5145384646388997,-13.08424077634142,-12.780088365173038,0.9051775581491857
0.264,-9.111203556665474,-20.087773023023985,-15.25328552785192,8.03085462972244
0.268,-6.195873558008939,-15.575059629602727,-10.058649517322841,1.580132984457638
0.272,-11.83941665062809,-17.833137937461885,-19.748547801326318,9.563911795785565
0.276,-19.272779263386095,-26.09097982566146,-18.514616202971805,-4.171943003456064
0.28,-16.599249606691846,-26.953621599180448,-24.915747782394703,-11.306591076832468
0.28400000000000003,-13.028596217334378,-35.998610743689014,-17.984905771795084,-8.899289699053085
0.28800000000000003,-23.158123226624163,-31.212226010933477,-10.643311892530766,-13.181039568455775
0.292,-17.35794180271799,-30.24865441132321,-17.41194215124054,-1.0245597040016312
0.296,-40.41844285716217,-16.496612871086175,-3.969572277718603,-8.491591228688158
0.3,-25.27975009274753,-34.09153061772543,0.5039553632240168,-6.996141296123171
0.304,-30.94933272334416,-19.49435653077574,5.1802350212342505,-5.947030837770463
0.308,-34.79563012404191,-19.505883654186505,14.82086797532552,8.289346742953075
0.312,-34.67369460726494,-20.20608872418653,15.36313469281636,7.170616714993082
0.316,-46.813500440913145,-9.44480650986251,24.27691800182253,1.9037474921015551
0.32,-39.62402157797703,-12.592082860017129,14.053182747932885,11.82398482920367
0.324,-38.29278638598509,-8.393491716895864,20.64015740465717,4.589558072789226
0.328,-34.14032473608306,-6.256902680519949,20.06807894652351,-3.822334921532927
0.332,-45.46768390105084,4.610514866700076,12.750268580544972,-0.8835012069035848
0.336,-48.15702933621361,8.493197614590876,20.191739865972508,-6.510192340293825
0.34,-47.750137841223676,4.332310177464578,23.379071575113564,-13.624844670543702
0.34400000000000003,-41.67684975321254,5.144974032122267,7.2774606812743805,-12.0415718792407
0.34800000000000003,-45.50577124634481,14.740335711860602,5.031770112654923,1.603008850620756
0.352,-50.57489046970397,15.411486025095058,-2.0840722922094175,4.4687336539852724
0.356,-46.015249480166915,22.30991854900633,-10.930414403229383,7.6942098991401515
0.36,-48.62897478969423,31.517028438481134,-20.859506434859533,5.278076148606993
0.364,-44.67984633216811,25.17072690319356,-18.93913227099258,12.862610342315666
0.368,-53.31694592654539,28.747332258440345,-25.056332954079046,3.9276380120881487
0.372,-51.6027843650183,30.098452989642226,-11.12523462427818,3.17131225387842
0.376,-51.95659297585159,34.2208385902441,-20.536083038181626,5.981388396291847
0.38,-57.218911162074164,18.234170851937634,-20.75072697113893,-9.182023701975446
0.384,-48.199964140677544,25.256214602959457,-12.440789386101258,-16.913216810024508
0.388,-48.02902084949395,27.525155254445977,-19.299697632853217,-15.243003243633268
0.392,-48.83783889519737,30.047404328260598,-13.469393672057098,-3.4717851215820525
0.396,-49.44201760853942,18.619986856434455,-4.633436397053982,-3.5438810541160977
0.4,-54.629679525009756,8.250794038564838,5.143844957117383,-0.6443868934437874
0.404,-48.81967373665739,16.885953048475297,7.482222969141059,2.2720677144593253
0.40800000000000003,-47.475631213679726,6.451496350088133,10.876699194613712,10.870078792786098
0.41200000000000003,-48.70345755367128,-0.6976415261935687,14.081530794753883,5.7347430293316
0.41600000000000004,-44.315616291806315,-2.3678240852660246,18.887737787674183,10.57659836787317
0.42,-40.196141991028085,-4.682623795208335,20.029394851549338,2.221579678859963
0.424,-31.386033029806562,-11.21228138821077,14.81067319468075,-3.2349645907321785
0.428,-38.441532542671744,-23.459097715293808,19.87614112273953,-6.868682700971831
0.432,-36.424817083191385,-11.906499417592388,12.72809775473164,-9.582169660177678
0.436,-36.38768082322618,-13.605980816633942,15.815677570019899,-10.067021686955405
0.44,-43.82121137292965,-19.85778732657611,9.352465338408274,-8.33328618739597
0.444,-32.485367455718304,-31.41422803793364,20.059399167607847,-25.287297516429092
0.448,-30.095363835025154,-28.759773874771337,2.307192752527533,-6.525151660382379
0.452,-16.047236893911396,-29.181558563587497,-9.527862502593994,0.5290489848683162
0.456,-27.220536321970382,-26.89003632648562,-8.033392107078189,14.370781252328541
0.46,-22.579946993417703,-26.599099409257743,-9.158911317660007,4.110552121040868
0.464,-22.029347181072843,-32.98891270093829,-7.04344512475318,10.636855597786445
0.468,-25.412073529957784,-27.61989049163056,-21.043803049013977,15.180283976437085
0.47200000000000003,-11.518032086150733,-23.819110617009546,-27.55788488469198,-2.8835971228896167
0.47600000000000003,-11.09241391541788,-16.309541353364693,-15.876349511410526,0.7165437936789645
0.48,-8.479334623027533,-17.013880478737043,-25.924123855401334,-9.889211692597314
0.484,-14.532436299694055,-13.072785036925158,-19.067335717577755,-11.571439236106347
0.488,-0.497307901357388,-12.69433985988121,-14.979044546128751,-13.995821454049288
0.492,-12.027341056522157,-1.8589517212935203,-9.983240748534879,-12.102565797099603
0.496,0.42206956001284057,-2.457953693825284,-1.5279754579254137,8.792023998515315
0.5,10.95227812904988,-4.305439550867875,-3.418171411431963,4.2222793603583035
0.504,-2.440465716664955,11.523617524248682,3.605151482463241,10.32622604994815
0.508,2.1865970945468707,12.400763810006136,9.563721717287354,10.903246689202627
0.512,8.009536281476066,10.898252893885562,14.438931906167738,1.9489833422729284
0.516,7.4681207551393385,14.620603636806496,17.375694383579916,11.023060376276728
0.52,4.681177202912082,22.019290903564436,21.201159202015965,11.242500595461484
0.524,15.194893952881865,25.90457694043649,24.179732116774115,-3.013665034552461
0.528,11.920627590095329,27.09197396824182,21.608915592828602,1.1453878089587985
0.532,21.936645495036053,29.58641164091277,20.364468666866472,-4.183451378487518
0.536,17.258667161377634,37.8178305799277,7.499149021783394,-0.5626722832185358
0.54,31.83735573017348,35.29851761402258,12.006843541677886,-11.599480225519638
0.544,22.3424650363836,30.837186230620297,9.760028793701522,-12.333525970665455
0.548,26.753139875309465,33.85550489127763,6.151370644138279,-4.2950394185112195
0.552,34.46410097157862,22.589696687396028,-5.968418542455085,9.664753837466694
0.556,26.19847649630245,27.715434935543627,-10.657687428136786,-2.2965583449229277
0.56,35.36465496945512,32.161929031939216,-14.626208422267432,-0.8313134142036329
0.5640000000000001,42.5511650158075,18.890126546065638,-12.728195356059125,10.269848901944936
0.5680000000000001,29.675152863999074,12.153660758932567,-12.927135774699373,5.492185963887075
0.5720000000000001,40.237590899492474,9.170822986833198,-21.68304555103179,3.719884992725176
0.5760000000000001,42.116376507101336,2.7403928788077536,-15.420723000430186,3.473226520536283
0.58,46.12551063398729,-0.16381253370927906,-18.40373128008011,-8.64069925351897
0.584,37.32443417908585,-2.606443356250197,-17.507987395852513,-18.413299679313276
0.588,38.08978814214179,-12.27852686515146,-14.747863267663682,0.24214050171699952
0.592,48.371766459130356,-9.550216624468172,-5.902016659023619,-13.429420692214093
0.596,48.20137048899652,-9.27600994971134,-3.3459086593617458,-10.11272235107764
0.6,48.80529006648706,-22.172338469508773,11.379127138238157,5.518600068612953
0.604,50.00132298914856,-13.483079475756565,0.7126745283104192,2.895091135809513
0.608,45.463282570517215,-21.49304910348829,12.225581992184107,8.126329994846051
0.612,50.49556569619841,-21.3158338649283,11.044937069516127,12.394217904584298
0.616,51.14592789249383,-31.57888884604659,12.540123575097084,14.466186040210175
0.62,46.329579331281735,-25.195991386527574,18.966794640728203,4.210549057015896
0.624,59.32492476591459,-35.43835368119424,20.64729696560061,8.853092365214597
0.628,52.3336382365884,-25.357101811417706,34.23661278987426,-14.360244770520726
0.632,43.85016297114539,-28.10225246603057,17.17581197090437,-3.9061962429925234
0.636,52.80583932800171,-24.69097907870361,9.759371208092372,-14.020510297375173
0.64,44.240954185297824,-31.20781079318469,13.120758633321415,-2.6492085799115888
0.644,52.517009664445965,-27.10289063346616,-3.010709134038226,-6.135248665134204
0.648,53.71906734590582,-16.425537755816404,2.0468807582647024,-5.851425531695504
0.652,43.04611520288468,-20.496978919959837,-2.4265382598103074,5.801104336756735
0.656,51.070740987944504,-9.42517854462048,-3.3894891389674995,11.311412795323141
0.66,47.305257257983456,-14.29638564724686,-6.887593798710201,12.720035777244718
0.664,48.22486212172013,1.2300196177969456,-17.928112950054423,4.67439130912157
0.668,52.36029772295235,-4.655287028449475,-18.84961112247008,5.285046809647435
0.672,40.30285437977628,8.752799103829847,-23.476349167627134,3.660881341239582
0.676,36.30966842175636,13.467442363465572,-25.600847342603902,-1.45963059889334
0.68,34.07808999066181,10.968751130903577,-17.471656428999907,-2.1291251457329667
0.684,32.79660444308151,21.14804176626182,-23.254486253023256,-19.12277668719327
0.6880000000000001,34.746989942871934,22.911482063305034,-15.764076621433052,-8.308632011515195
0.6920000000000001,35.00635324579578,21.79596824055183,-14.61094328153047,-9.893186027203338
0.6960000000000001,32.76802206118508,21.772469304156893,-2.225381811845803,-9.010039822936918
0.7000000000000001,33.52517885980379,18.718567030491734,9.007150496332548,-3.71243388884789
0.704,27.38472679610306,31.348828562734493,-1.5341421707196217,3.7448484184272797
0.708,32.44883046757468,22.173617469304208,0.36998106754638016,-9.562146267277488
0.712,21.65570886488465,30.19056376810608,13.066507691823348,6.473819430324957
0.716,34.319624882612324,27.438412590110055,16.965047489829086,4.6691964014287315
0.72,21.53456437305893,30.540525451171586,20.114426859689548,8.541768569537881
0.724,11.761392708279125,23.407649478425064,17.728931992393704,-2.774301076909497
0.728,8.293134285560743,20.478154589009815,18.64254852044663,-4.756814527699143
0.732,13.625900123685009,22.49009436016253,19.934093102023454,0.006250710548695082
0.736,7.633839022134552,16.78398619449342,20.612419318739985,-4.851114908209768
0.74,9.836664148675656,12.624516366454301,1.980461194258078,-4.999208163234284
0.744,6.132528399264411,9.074460777524102,5.517793858536309,-9.344833211341193
0.748,0.8923602088825391,-5.418056450197549,3.575708640991495,0.22826252479962328
0.752,-5.490473362508891,1.5241392340969955,-7.096545194339784,1.3174098693805978
0.756,-11.340576399825972,-3.6657788584133963,1.293357105142947,5.865005005902192
0.76,-8.499236438550264,-16.127152223422833,-14.932754446993117,11.558991881684273
0.764,-4.4691589771464075,-16.32909841744378,-15.616728290552157,6.837904565182237
0.768,-10.143069326818027,-19.027277276859156,-15.316430565108957,15.17014794997388
0.772,-19.87629066942621,-22.79787744275389,-22.60216895858325,2.880594828857076
0.776,-15.181275861104593,-23.248577143031678,-29.193399807587518,1.838470495655292
0.78,-16.479640735589676,-19.987977664824662,-21.16440296048575,1.4001498733617908
0.784,-25.138066230669857,-23.34682003215714,-11.739355730405135,-3.8900016517842912
0.788,-22.21036750134676,-36.27493873805656,-15.375417752499432,-17.024862797735338
0.792,-24.890116489558068,-26.88728137458424,-13.867244989329183,-6.21879977997072
0.796,-33.034568825866614,-22.95591172855899,-0.3454366957834978,-0.5639397687139276
0.8,-27.60032581288222,-26.597652885408607,-1.6538744801153027,4.459315110803705
0.804,-28.580645432693853,-21.36034059860808,2.4229936750460808,-0.7489374295559381
0.808,-27.88533715583622,-14.42882529301167,10.382353930350893,5.158103069933556
0.812,-29.863488229767977,-16.490723016102244,17.54469316666772,14.953058462990825
0.8160000000000001,-43.76400270769413,-16.991365952629508,28.795126168703025,5.239468671246971
0.8200000000000001,-43.21478733836508,-9.227167852627648,23.157310864190222,4.379372239603078
0.8240000000000001,-37.50317290750054,-9.614848529750974,25.759734400507156,9.132711383152817
0.8280000000000001,-38.96086520522961,-5.871784199007414,17.115914019634488,-3.9202417787707704
0.8320000000000001,-40.301094378152406,-3.2644007239616926,12.967200519473002,-11.339003116927117
0.836,-24.850903868474052,10.82791823969687,15.721921603611499,-14.210959291601384
0.84,-42.386900069835114,3.368553285235559,12.291554622147476,-7.846968515025609
0.844,-40.57603214081988,19.403048628506614,1.9699273468706382,-13.51121110167298
0.848,-42.3795179771772,18.254559517540635,1.6301920217661183,-3.723578691130734
0.852,-44.66913319433981,12.415147973073566,-0.5100766626903046,4.153051546598534
0.856,-50.157932868935426,24.465787887040133,-5.560524078603145,13.341220162025214
0.86,-45.31951643396809,14.829705226802337,-9.234265778928068,12.8483055648015
0.864,-53.387197357520414,30.58477526278268,-13.955441204828523,6.252546917376007
0.868,-50.990773490858665,33.38760657994314,-20.63158434567063,13.597229015576556
0.872,-52.39129137117498,26.846559537339985,-22.21524814781799,2.1836703391093786
0.876,-49.586681513259194,30.596422658995593,-25.95529155853481,-7.431847445890073
0.88,-38.32804358804603,39.23940469061212,-10.097255129977608,-6.738059319252059
0.884,-59.01689148895916,25.760982555476243,-16.81930668694387,-1.857424518931655
0.888,-45.90299625852084,21.174198857765617,-14.815207397548004,-9.15406703395809
0.892,-56.926985534357925,31.45532655843936,-14.279033889296588,-8.380669933371212
0.896,-50.628741270610874,30.89243504661943,9.704491768341779,3.3685214824970995
0.9,-42.10807282992086,17.652035928013465,-5.366640161114522,-7.15677423527218
0.904,-46.395047027353286,18.844710995686512,2.829558115266658,-1.610458829246772
0.908,-51.150782520692395,16.335687871870654,11.714257663464643,0.36404690018601116
0.912,-48.26858975386301,1.5382706065663925,16.692006947295173,11.843508216682991
0.916,-40.11119898880292,-1.6726263135391175,21.67621878611871,9.880736160235825
0.92,-45.86822943368644,2.394375558844503,28.059172864749375,13.59153435932365
0.924,-39.734669587949305,0.23651332802281289,22.491322845868996,2.470707721326826
0.928,-39.08656240731186,-9.616863128926667,14.365591014740428,-5.702031324243331
0.932,-40.9705707748343,-20.790902169538388,16.81181542371148,-7.696158063367363
0.936,-25.295730797768723,-10.04505046453033,16.94942671808522,-9.234335414982095
0.9400000000000001,-31.05776018484437,-25.770251772333584,22.096835253378504,-17.869371529592343
0.9440000000000001,-42.478511011760226,-27.40148859166686,0.3734636615720106,6.706187162387628
0.9480000000000001,-29.464243310883084,-26.04062703258563,8.519547197412184,0.11245621886104695
0.9520000000000001,-31.672379780179778,-21.378149883866378,-1.607092823554011,3.536940411761503
0.9560000000000001,-21.99656482408366,-25.61412839153406,-3.1733383775461377,9.921290980679775
0.96,-28.05028739724932,-27.866474351038594,-12.265678629029084,13.057620065884546
0.964,-22.429470539881176,-27.001601056455286,-19.622428006147366,9.120105079774742
0.968,-17.04374694695785,-27.81229493048108,-14.342177152313687,4.548926746554457
0.972,-12.90337018787524,-23.314815067493235,-16.373589879045642,6.678498958455423
0.976,-20.853561114130688,-36.236453352570116,-15.100249739866822,0.6752218670142391
0.98,-14.107000537447522,-22.019450473209748,-19.087653502796265,-9.927303018371735
0.984,-12.360225581525151,-15.811458799218777,-19.885668626639593,-1.9530924678238435
0.988,-10.777925618906412,-18.86854341762557,-21.484877093693058,-8.513507102667806
0.992,3.8091854588446727,-6.979630858253362,-5.538207141337267,-4.794182443681993
0.996,-0.4873073541837458,-5.529123778553295,-2.8543503310771854,2.1420676973824238
1.0,-6.304419771675251,8.777378491577405,-4.828913164319845,0.1094441058241249
1.004,7.101525644262354,12.371866299696883,2.2809293768138996,6.402296775937661
1.008,15.628866727623928,6.582219601720264,7.301279422277009,12.493415447550676
1.012,12.673605758793538,12.359284441694479,6.276019958661689,6.355961865282455
1.016,2.388649195950256,16.648330645760645,12.798146527014623,9.318528838890208
1.02,10.013323993911476,18.278115797062576,13.35197854187133,6.505595456180399
1.024,21.186634824784875,24.563777884239183,17.898139509125752,-3.5269604227739926
1.028,13.6937988306319,22.31410229564777,15.952257522925956,7.90693841652258
1.032,21.78778048259123,22.376791599010744,9.961516444986643,-14.741599645219909
1.036,25.728958599693318,32.43159982654714,25.523216008363207,-16.31339202572267
1.04,19.453031347195356,33.088449773957194,18.018408700995657,-2.939432284433657
1.044,25.961104717755813,25.862429475995206,3.467393946093705,-3.279139805304233
1.048,12.157110755992427,33.625729141253224,3.8687716545542417,-7.616722959052542
1.052,25.27457667805881,24.594427559207116,-0.4193392221797563,5.523343947157155
1.056,31.089957321506418,26.991625875999443,-1.407061779826285,14.184723284273522
1.06,27.988439386610207,27.21711734633596,-15.848730179149928,9.359249874966634
1.064,44.17750776405356,19.81229319950904,-9.949730935603693,22.816987007659783
1.068,30.561862147002014,18.665534962733684,-20.83606757035508,-0.9151766265823058
1.072,37.11419917334603,9.849119210360662,-26.32505703541684,7.150362796142286
1.076,41.47066542228967,7.206225148379334,-16.339851771992947,4.579309345461998
1.08,49.42276272043136,2.730699852527346,-12.567338205290946,-1.4211330148984551
1.084,36.329876977579076,-4.486794596001331,-3.9470136423869224,-10.070049157888402
1.088,50.507889968337984,-6.134562584837136,-19.68956844402471,-11.43247469433845
1.092,45.81322393614382,-17.3713997885351,-6.140475056630234,-6.222553399583786
1.096,41.80890386759086,-16.243164554355175,-7.022803962264648,-0.7387643077567034
1.1,49.86334318607405,-19.05793503562251,3.916793552620245,3.012367181411905
1.104,49.264380419531044,-22.360397856442447,-2.378650012859099,10.017826194984151
1.108,45.8623217926157,-25.254496775480206,3.3212246035415127,3.3489294696864906
1.112,49.6833076353435,-26.77755779234922,9.811568002741355,8.841412388664542
1.116,47.753997541691625,-25.89250848635565,17.28137873838071,4.348190864041436
1.12,50.46892314766982,-25.096032151198056,15.815723993211279,3.947288642494068
1.124,53.306705582796035,-33.22751031345902,23.25580628813254,6.32943679471437
1.1280000000000001,57.89455771275622,-35.82434359254596,24.780218105863312,-3.141325923220795
1.1320000000000001,43.617602963024375,-34.17167122621372,21.094428755547106,5.329163387990865
1.1360000000000001,60.188238158113876,-29.893249784602084,23.50420305382005,-8.855840671338322
1.1400000000000001,39.35392353882192,-27.089444354142934,13.834838193126107,-9.212105760052827
1.1440000000000001,47.82266117055577,-26.477521753070366,1.2780075019926693,-6.314556462085764
1.1480000000000001,50.86767548329166,-25.892262168332653,9.323547238977755,-5.675942335948199
1.1520000000000001,48.55448613331836,-18.0358430362097,-5.532445849316073,2.197715809760579
1.156,43.14036274261996,-10.834076904546357,-2.8103985552656825,12.484411194845094
1.16,44.200741371514624,-4.485549285768035,-3.8870339630738844,10.08041850359038
1.164,41.649556648453526,-5.7979667110781286,-13.126824801863734,5.855573857869546
1.168,39.92950902496162,-0.5576595653242287,-25.57733511514359,3.0797093253647887
1.172,45.777805444895804,1.3578078711954475,-24.236805847122707,1.4302360685176954
1.176,41.863426673369105,10.182091843361565,-13.346812234139765,-0.8840151635884705
1.18,35.06111416248622,10.210467052097265,-19.866743754117216,0.09008015445674111
1.184,41.373655245074964,21.103547997044,-16.488690835329592,-15.750713731492281
1.188,36.66899609432557,12.679938286966609,-9.896820037755916,-11.579398673726512
1.192,37.36490396590744,22.69202915925313,-6.153459171632688,-7.721729157844757
1.196,34.53271227415313,28.320779420496535,-3.5797986813698213,-13.986065579164354
1.2,25.24428756001332,29.45086807046711,-1.043341856102388,-4.16799141483209
1.204,24.518812135728687,43.06574664613851,3.4104555146352244,1.418094042336144
1.208,28.917628107404415,31.746631448954016,13.92456760849092,4.463427385767598
1.212,26.030844358241765,24.69356978668949,16.458789773912635,10.939715009390945
1.216,20.614271079843498,28.278332435075942,15.600058506951262,8.245472477151283
1.22,18.99286455077782,18.263579906648406,24.431691890868713,3.101422009919713
1.224,22.435504969302674,24.514878229390597,19.3153639929165,3.3931454684064457
1.228,10.68973983168717,17.960113235741495,15.387434142901803,4.934128061384445
1.232,13.949024953319286,23.40769221652196,14.301687554803669,0.4911501559508711
1.236,7.7401896865943485,12.360994676095176,10.516560673966975,-19.43673136759856
1.24,5.178255662079106,10.459907001564195,10.393654962831075,-6.6252042437758565
1.244,9.260224536332649,3.55033362145958,13.531112445374607,-7.735587509606145
1.248,5.383586517107064,10.954060925104658,-1.5188112338663426,-1.7111221573218809
1.252,2.811043407836338,-3.866017996427451,-1.564285866195425,0.4954837039356632
1.256,2.7610537593750077,2.4346623889145187,-10.645937781830462,7.43341420872277
1.26,-6.161642470051351,-6.972977769948995,-13.057250252206716,10.267602143311654
1.264,-5.341388092288938,-12.698362412395824,-22.96047091544208,6.928113720542262
1.268,-12.764871830436316,-16.987075102133463,-19.199232195103086,3.2232946886319738
1.272,-12.026765013424047,-20.156407029663956,-20.614271913598582,1.4377671137493633
1.276,-16.69789576219891,-34.55623987260239,-17.259094848386955,-0.08203601335918109
1.28,-17.921247809270344,-28.5392285447344,-17.90472575962624,-2.88287081450336
1.284,-17.742993922479695,-24.529863814599672,-22.878519134800577,-4.781525637959424
1.288,-27.070096447241667,-29.958328688270058,-8.269950898356148,-12.451217399617287
1.292,-14.719223703360678,-37.02358056013236,-8.583558280924459,-7.0240564185065475
1.296,-32.34980424421192,-29.862600579123388,-3.9818301574095587,-0.0050237812505669055
1.3,-35.46020567856229,-20.01116790757717,-0.04591176692561626,5.827974475720719
1.304,-25.59401369703468,-20.58078414686428,2.3850105071860455,4.523372470359585
1.308,-29.342279901897907,-24.800197568345666,10.724085180777955,7.338620630322099
1.312,-32.01189940468171,-16.85202436134681,16.06888429821668,10.935888453464678
1.316,-33.733928321587335,-20.070444032678346,8.152080053312506,3.299733160173182
1.32,-38.58689600302408,-22.97196815718503,16.327326139172573,4.909804967747243
1.324,-44.56462110097305,-14.961617635883321,18.68579971654748,4.976264328008785
1.328,-41.150772168821966,1.82314442710888,20.926598043045136,-0.47150987962842494
1.332,-46.26214136724315,-2.8772949545395727,24.06309607895596,-9.056470449577423
1.336,-39.23896265465889,1.7939315486613234,11.551560782531807,-8.734281501851074
1.34,-45.97663953081167,5.961505633571349,9.26589581176019,-13.633816864404949
1.344,-50.38134632568547,21.26189295298115,4.799820500460765,-3.3280103181617275
1.348,-48.7564560029082,23.885033475649163,-1.500973279236642,-2.876006052330895
1.352,-45.86143217949069,30.50558001432409,-4.242597146847388,1.107141613167848
1.356,-51.400209409753586,21.832315370082892,-3.508479953753668,5.036851878819927
1.36,-53.22546451426661,26.80796020879592,-17.024882522671138,9.196095828452224
1.364,-48.30463522737299,19.87402243152362,-13.27119287975139,7.583484282627059
1.368,-48.58184760161501,36.346121295589604,-26.606052199412133,10.995847607770607
1.372,-52.49918950888511,23.969441559260574,-22.452434996784827,1.7048277867657535
1.3760000000000001,-52.35124373828242,31.06256199803082,-21.607981069655356,6.711488144493761
1.3800000000000001,-48.74108673462539,23.982104883696426,-10.646831961332724,1.4481999944821133
1.3840000000000001,-56.92098723348703,25.345381943092455,-18.260570033803717,-13.505987973932738
1.3880000000000001,-56.37161608227616,22.28242463780003,-24.697159485828355,-9.631745937136314
1.3920000000000001,-52.455627284671834,21.00763324274716,-19.629518016340562,-11.696562361701133
1.3960000000000001,-49.33631770022289,18.383885578220582,-4.803649811563729,-6.450774556960245
1.4000000000000001,-45.998287986767664,14.892213594148684,3.0688542789497593,10.0121373382242
1.4040000000000001,-39.33966603808285,17.954065377546097,6.851077031433541,3.2796796554383203
1.408,-41.47376051503585,4.103994328903871,10.472924011039147,10.244409440407228
1.412,-45.49176385738039,6.353398904327668,19.502240106101993,12.686873754324097
1.416,-43.60426877298979,6.843698624828039,14.188602406354544,4.04512366224407
1.42,-47.22904309828985,-6.325978829495918,23.49568310603713,1.6023751508788777
1.424,-40.9095282158212,-11.778152519257722,11.800460143433327,-4.776779521397314
1.428,-40.757714801431675,-13.583890555699675,15.121005849883492,-8.111099196335413
1.432,-36.09897623511477,-10.49320436022437,9.061334074661316,-21.955282974343795
1.436,-40.15160596215697,-19.009817868260733,14.036038352166852,-7.099960503318739
1.44,-31.63062272522857,-25.771468756311602,11.524398959517807,0.7604040433287906
1.444,-24.689103513459308,-23.30641642986928,7.932998514826251,-6.106367364104324
1.448,-30.940315627014662,-33.26377695421585,2.816081435721888,-9.568243168351708
1.452,-26.354888845843213,-25.742154435225455,-7.14443132534457,-0.7269830428513435
1.456,-22.8080115395093,-27.84097173578632,-8.313695275759466,4.551086834161767
1.46,-26.093786064515008,-31.479844208542566,-19.24293838887803,4.42264127688459
1.464,-20.735325923494607,-33.51097269928198,-8.594119979854378,14.123785699262715
1.468,-19.505721337951172,-32.46327288511571,-19.614671413810402,11.756432649634553
1.472,-16.7437656659817,-23.431425958356225,-22.090175609792226,-2.096013442241505
1.476,-18.717127998129065,-17.443750451653308,-12.015832926345018,2.372072886594541
1.48,-12.311943486947992,-23.722951913004742,-25.23236299364924,1.756210794961654
1.484,-7.495507569493221,-14.726134956045279,-22.5144940802002,0.46452050148764634
1.488,-0.2555614170627427,-23.548608092538394,-19.172043742916692,4.34579283114709
1.492,-0.22173161213478831,-11.834336100597183,-9.974430390531854,-12.953242502236222
1.496,8.253696378569247,-4.662062337977219,-2.8156395951092907,9.303565390958699
1.5,-3.8367378144402844,-4.548417084909234,3.698377340588953,-1.771031942544157
1.504,6.873819092591853,-0.17576420032540074,17.83377433077198,1.855209464114616
1.508,5.934795771252508,5.572349664966626,-1.6120887889695048,10.078641129409384
1.512,18.460294122126243,14.5744366411598,16.73462006419585,7.069960613817653
1.516,5.9440075989446415,16.08142338177072,14.100905647179122,11.043491227892845
1.52,8.235885147338754,9.345257011235812,16.08905458145918,-0.7225334157617169
1.524,11.855115851631552,12.985152200923205,16.86167392729604,0.05956932532597303
1.528,6.612667537176755,23.071186750799832,15.101896660533932,2.7466656449617397
1.532,16.939908233456276,30.31830120396613,26.519165222337715,-7.99043888491357
1.536,18.060125024778134,15.580519493419622,19.621751490585236,-9.11489357358749
1.54,24.8396526374668,27.442150972089987,11.871684938636285,-7.134272139364958
1.544,27.967511376950597,27.252768991708066,14.117569816128526,-0.9921629126985589
1.548,37.74430165241729,36.09064087848247,-5.055980155208301,-10.763022432595703
1.552,35.14863407566057,25.827207146469465,-9.160190327940697,5.409519130835703
1.556,29.468279800160133,27.640744609514186,-18.252329714666953,5.504775363078036
1.56,29.73528193969259,23.82168298371101,-15.252777746465837,10.343754639510705
1.564,38.475047101927835,9.327523623991619,-14.601772221991954,15.122623356098789
1.568,31.11140300170196,20.23286648518672,-17.58224815965866,1.7341991706987576
1.572,48.47171543610271,13.50824995707998,-18.899035459274394,-1.381976680368782
1.576,46.71416313946564,10.729901263892787,-27.015818723895833,-10.930482134212166
1.58,39.87051801457724,23.3911855391107,-15.00535661283294,-8.623647231743666
1.584,34.943515088021925,-11.174467560793056,-15.688420918845292,-2.396108802766129
1.588,51.461433078390286,3.3727914795473373,-10.025670711243775,-10.583203226650063
1.592,45.18935940478283,-11.065545891218125,-19.09888436998458,-15.14390373329409
1.596,52.90552868269789,-12.35075129662959,-3.4163434493081946,-7.245930463892432
1.6,39.58068752078583,-17.861118795280348,-5.938826199587712,-7.439308517453193
1.604,45.27220682689482,-23.20068076095575,2.987181480540458,-0.8083937676385
1.608,48.88962467700059,-26.896174187320092,12.306897975216351,10.387373806338797
1.612,49.56920017921712,-24.821193115183522,14.146410149853427,4.110900652752579
1.616,47.43023816860421,-35.875584560144354,12.628858611143759,14.611442050676667
1.62,53.01558608315108,-25.715721684251832,19.05249610682518,5.522251068773
1.624,44.65795006327783,-32.059656203643954,12.302857992347217,1.6813058553656361
1.6280000000000001,49.252576206922996,-35.45868601080203,25.397081994065253,-5.073110364886254
1.6320000000000001,50.40815861571812,-31.21151345497728,17.070120951839144,-3.840893235039262
1.6360000000000001,52.09526545512631,-21.171489094314595,21.00301457679245,-5.907073068401824
1.6400000000000001,52.67243692687888,-28.006513200141516,9.123046610369084,-7.835293403390615
1.6440000000000001,42.95837618654435,-20.835273331034994,4.7446111116604825,-4.0215255297485175
1.6480000000000001,40.25551859719067,-23.066460225660563,-1.3142692619032932,-3.547347221250534
1.6520000000000001,53.53791090413574,-11.965629649220684,1.8742049871791755,5.1979139061939055
1.6560000000000001,47.91543040162084,-8.313671311165017,-10.909646840336022,5.156082181917919
1.6600000000000001,41.498919940518164,1.7823475515365912,-8.53272788377363,9.521723273763564
1.6640000000000001,51.87032119936022,-3.888671173032411,-17.322526843862256,8.449653760455394
1.668,43.45470598114692,4.850603569182453,-27.97635754877837,5.419039731162092
1.672,47.42628088010977,6.481637113126702,-22.497315353506046,0.23568653823811614
1.676,40.415941650594476,16.818646604550498,-25.85607564037968,1.085118183651438
1.68,48.82940176319949,10.858448285007666,-18.85161670749141,0.6751770411426516
1.684,45.65236008012481,21.962935495224386,-22.838597188412812,-3.192760666312352
1.688,33.887677747547166,20.63578426605374,-9.06106661500079,-16.2630939640099
1.692,38.15844812648442,24.169236635972943,-10.09045278379959,-1.9972639979858737
1.696,34.61144781246081,27.27400514677968,-5.861777717090981,-6.40832924910697
1.7,36.232420402285435,29.792897470987906,3.2794606889376876,3.0036650757277323
1.704,22.495100033812953,29.019433110626228,9.793332413676161,0.28646008078087526
1.708,28.611417381780235,31.071197241967116,9.534579723186047,9.153178824390178
1.712,28.271115465322314,37.6044330587105,9.834940620827302,11.54888319876725
1.716,11.92508161754876,33.68290209859741,8.016710429479627,1.625246565061956
1.72,12.489935070905128,31.49058453646506,15.590881540727144,8.919188354645746
1.724,5.851019601560058,22.64017934575518,16.874473335325618,7.983007374834731
1.728,12.300562603643542,17.679189379603685,20.181032279535284,-4.554485255254788
1.732,14.801249326448918,23.607243629909764,16.370806643630328,-0.904291773617719
1.736,16.26293820924397,19.488930011722026,18.84992971577305,-10.771339974548887
1.74,6.637135580314096,18.40708995929536,8.690788689496198,-5.262642507718519
1.744,11.909418004253082,3.708219698635263,7.077285219428823,-17.938320889042362
1.748,-5.644002518907619,1.1120608890365014,8.426601887270532,9.606990024918769
1.752,-9.773416968942527,-10.45722497846504,-0.7975386015112238,9.964190097863305
1.756,-4.044078770879631,-8.690478358785834,-7.662678762136328,5.422343538018451
1.76,-4.346334433518598,-6.060884027642872,-14.76542725552528,-0.34987997026758144
1.764,-8.914626689234211,-17.441172945213726,-18.576421839090596,11.263014348814353
1.768,-21.550748547668405,-15.62834186271693,-22.349607314080068,0.485504692389199
1.772,-14.09319697343019,-23.07790905073411,-22.350779343488238,5.90551321463438
1.776,-22.569527992884744,-23.297591834766525,-16.182205374843857,0.8044962601782846
1.78,-15.057864890083733,-32.883268523058945,-20.130571682364398,-10.5848683679349
1.784,-18.88578781918001,-28.329606422351706,-23.635423856946446,-3.4434354065883195
1.788,-27.67839196271107,-44.66952262540314,-4.850095653274858,-5.952393770251849
1.792,-27.750494668471436,-30.932112116924408,-8.035247526308517,-3.56416256857735
1.796,-32.61578494615816,-37.75294454481178,-12.008514745863,-4.773248222672728
1.8,-29.702658100989485,-22.501722906120555,-2.2092446362042075,-7.07762033456862
1.804,-26.608856462028815,-22.928205960715324,5.528229657439072,9.706898102072739
1.808,-38.229223603390295,-22.15682261168524,18.158033948521066,7.091422259341117
1.812,-32.61226591235326,-14.004239610840354,8.150379827279508,3.031366568319376
1.816,-39.52694395977093,-22.982491534962293,21.766762106820078,15.80846735453179
1.82,-42.49002630010122,-5.715794233473851,26.0185624607648,16.374890125437236
1.824,-40.61350104331667,-5.678329873933647,16.817263043192582,1.0470916907470031
1.828,-46.706006571887464,-7.174075851526862,18.258176920272607,7.114360246169682
1.832,-45.644579336418495,4.170771190521434,12.914994812451553,-7.248558784701124
1.836,-50.10395078469189,-2.5206161165217793,14.392959150114299,-11.72515202811863
1.84,-35.41772695871903,3.338125807307363,11.57275517413488,-12.662857433878951
1.844,-46.077542581864265,8.698261388917395,10.66074104410552,1.3399409806767384
1.848,-50.648154334606154,13.110350358518755,7.957582026388184,-6.387618278587274
1.852,-46.8561898971977,14.12889063328214,-6.247144994394428,6.163245421523589
1.856,-49.14322689418786,28.742956757559618,-17.199116374823603,4.0496518839909035
1.86,-50.21921053410057,24.035565763211274,-11.861928942230715,7.209031350079737
1.864,-46.45223778461543,29.219760020411968,-13.942577205672595,14.974120977134717
1.868,-46.019141906922094,26.109692332929768,-16.849452610895177,5.804948196311127
1.872,-52.6169793700821,20.705322812857666,-21.27911125211899,1.6572686297453458
1.8760000000000001,-52.87514341341421,31.328970971174783,-19.336774070245763,4.410691150231056
1.8800000000000001,-51.2765949071718,19.907342644761727,-11.443906284141775,2.109133943183229
1.8840000000000001,-61.19017134967834,27.9465458463586,-14.977887665227668,-5.824821508239097
1.8880000000000001,-56.91025252138615,19.62716159888449,-15.557784243589097,-13.254116162402454
1.8920000000000001,-42.029034841187034,33.98338954228018,-12.136062567514191,-10.996321751507992
1.8960000000000001,-40.04424337415725,25.636312704839092,-5.823059531685674,-4.417960422316897
1.9000000000000001,-48.79800601253959,18.16232652513149,8.183699809153248,1.6046503096283369
1.9040000000000001,-43.83366230755178,20.105929206917736,4.057294195666129,-0.12179280968168893
1.9080000000000001,-44.2058078583282,5.396728406887612,9.536101759430759,12.058468952919466
1.9120000000000001,-29.29766716528699,7.968088662608611,11.279374263892231,10.40783393248071
1.9160000000000001,-37.91131317630337,1.7529550318934097,22.381475297250244,0.46972893146945616
1.92,-42.855984232504646,-2.439896600260778,28.820316599626416,1.2332201106211542
1.924,-45.59466473886138,-1.8267905649856484,22.213599815722368,-1.2673110326151544
1.928,-47.34665320811885,-8.768806915899388,20.05960953350093,-4.045533971051914
1.932,-36.69525085746911,-14.948212087902965,18.28045521519164,1.7412615497622017
1.936,-39.79720497081689,-28.254793204168827,3.48873091158719,-8.632015976588706
1.94,-41.33862384442281,-27.915628759670913,15.48145936727374,-13.714424612444734
1.944,-35.585662499684844,-26.339344353788196,8.033323133673024,-5.742317037751263
1.948,-35.80425490280236,-27.285454333650385,4.648374924590002,-4.247337608918238
1.952,-19.927739280975103,-34.79997061080981,-6.06397564170457,4.110690069316219
1.956,-21.850532713317623,-17.82562489640307,-9.284775448578955,9.748309494464912
1.96,-24.127546911668922,-22.3588315765803,-13.81082972836525,15.556718399071197
1.964,-14.456067638096572,-26.30745210508341,-10.302149935150512,9.70144002893678
1.968,-19.181841803622067,-27.669683967279628,-19.990340232335793,15.899935065757155
1.972,-21.53856716536719,-27.166557489591654,-9.23244340402475,8.221358839527905
1.976,-7.236458692503456,-28.348245264209808,-17.806222473490255,-4.790530059703773
1.98,-9.739944139819425,-20.149010585266318,-25.399543625881805,5.1714258058177816
1.984,-15.171729797352764,-15.729305773089138,-17.529289976300078,-7.413297958309714
1.988,-8.462972846456005,-19.322275876936196,-16.94931772935586,-14.155889804143893
1.992,-9.39617700948462,-7.240365361086512,-20.606985831134462,-0.17871399886806394
1.996,-9.426214563810229,-5.283062917746685,3.0235569572717846,5.571351184975009
2.0,4.630887737658158,-9.539037789387043,3.5157127110999213,-0.16512631859790078
2.004,12.059299111339103,0.20484261972525797,7.639834332793536,2.2992854391390605
2.008,-1.9747521265349688,6.843219780202611,10.46209178353269,7.581404467751758
2.012,10.326125639490721,22.551911286228865,6.780854275111452,13.553925921871203
2.016,6.732286180111252,19.80083409647154,14.468472812263006,15.437553799812855
2.02,9.998867439419143,13.859005332361047,23.230034199823148,8.730289177242565
2.024,11.890109457657307,26.018834411186706,14.70443441965292,1.7619483780018772
2.028,12.912192310326699,18.368992695393977,6.986898433319709,3.8088133246753713
2.032,19.811291481584203,33.44332354313365,16.961011010415778,-9.269314793015475
2.036,17.701037750491423,26.962420447956397,14.701477085378137,-4.668275815452339
2.04,25.439967833984944,29.472620909152297,12.43352212792286,-10.950879154707874
2.044,26.007540950819106,36.51299151200614,11.005084271266359,-4.690356269232515
2.048,27.1687072220058,22.713134144518982,5.694693732442001,-3.054711695600682
2.052,25.85869657452232,20.76672527946875,-1.2128156450662924,2.2076379583843133
2.056,29.46894142563047,22.807803054079642,-1.3848341132600774,4.958538471975888
2.06,38.004311425563145,28.307291538370293,-19.350553949915838,16.234835318854934
2.064,38.52003718251721,12.383625645643264,-12.88735578312884,6.158242316744209
2.068,32.824792812812404,2.231052411475382,-14.96384923263555,4.003971165014542
2.072,39.81108313397706,10.175473137753567,-25.843556444974965,14.286213356072368
2.076,44.573898152718144,10.947262065074257,-27.474887611977366,3.635905487628405
2.08,33.86936986949391,9.76130575562345,-22.75084095828111,-17.80342101638983
2.084,46.225988695375975,-3.0697096737270875,-20.19426572261668,-11.874564220712278
2.088,41.37895241283398,-7.307824804838405,-9.923844801061737,-19.040213972092996
2.092,48.615051974011706,-3.858804622937388,-12.707767400489695,-13.196732722096375
2.096,42.90015134011799,-23.13610431712172,-9.255540334703324,-20.51011007218754
2.1,38.52841531143507,-19.576161444689337,-3.0581686834727564,-0.6849478884696727
2.104,40.13136975224787,-20.127379644340074,10.566959414068439,-0.892172354789146
2.108,49.10383091171658,-21.80091593970112,9.700290353919051,8.742805539002333
2.112,50.63290971900082,-29.017770259003072,12.794686991789387,1.8546609898701067
2.116,45.158982400478386,-28.117511018256675,16.336531016535,9.462829790520427
2.12,53.094298715300454,-41.91025428892561,25.48143199753574,3.803271132322948
2.124,41.688451898846004,-33.269926240886925,16.214675935549213,8.763097161586153
2.128,49.634074638792875,-27.540795752827933,26.223286469274267,3.37553878188123
2.132,43.75159945834635,-33.872919336271615,19.14902254392799,-3.7784044127063563
2.136,46.26389074582177,-27.162314070679486,14.608167945639005,-11.455941410592962
2.14,49.3513558930165,-23.095475261047035,24.26020753552061,0.41633681335003025
2.144,44.27951981931393,-24.340287426371933,2.0842936047005685,-14.610647448485985
2.148,46.00331172971966,-18.559359992100358,0.7382358734507926,-9.504692019466606
2.152,52.18099084071541,-20.568901725262045,-8.668820867106039,2.0679833722031775
2.156,43.36940099410713,-12.774266403596291,-2.600181201012905,18.115661603892633
2.16,49.41981318362665,-4.409615766999375,-3.3097603775909814,8.498870628601065
2.164,38.46602704845952,-2.225986640694396,-7.060650948492686,8.906646291240449
2.168,45.52535369925905,-1.4253268024265673,-11.9767972835903,0.4955806471989499
2.172,48.73763806308014,7.1123814368863405,-20.63384735355362,8.410893453198586
2.176,27.720126742907386,13.912336648418496,-21.78673945601464,3.5125489360033813
2.18,34.541185861437064,4.202903830164097,-27.376979188373383,-1.9324765159252104
2.184,39.76101650381137,24.033279255617792,-6.7071908341311826,-12.19437388889713
2.188,34.11727155972745,19.927997053231778,-11.346051727831451,-13.513801126147744
2.192,35.15632273856907,26.617627187716693,-12.094858006381518,-14.908890507044877
2.196,28.364642130955843,32.80147734276414,1.6664867016376652,-4.398174232212554
2.2,29.822211551988058,21.673327002702248,-4.863822583799828,-5.4020366463923315
2.204,26.54133115975294,26.053373314098316,7.006907914410334,-1.0695457852294101
2.208,31.020070390087085,28.554887846735962,8.771927810580236,6.3248256704668355
2.212,24.25109724758045,25.79507516527741,16.884327817975553,7.5344864083616585
2.216,22.40679236004019,37.4303365497053,16.568690814109726,6.3583778805503925
2.22,16.34684280362151,22.86095110484654,11.766490870347052,8.210075507125781
2.224,13.609149369997937,22.14014307844009,20.338416431915622,1.648571346394434
2.228,11.484805836768064,23.147338678760057,24.89006572395054,-5.1220256794026096
2.232,13.18579875936043,12.819993208340406,17.950459020050488,-6.790067786200449
2.236,6.6462305446623535,13.130292490291566,19.285840463461085,-14.780507712810087
2.24,7.715535962697119,12.631002886791148,6.528057617479287,-8.98417204340318
2.244,14.143344269623828,5.063820806568668,7.231187087344163,-6.092458595063611
2.248,5.612128289325312,1.79286987133788,-0.6158876041572006,-10.002133168435563
2.2520000000000002,-2.886622433006124,-4.906464728079915,1.228239529237376,7.465367643500445
2.2560000000000002,2.2397293344230222,-14.30047437438549,-7.2050332423839,2.438302533152161
2.2600000000000002,-8.307038543323056,-9.43577052384449,-8.305336664166424,9.96211415898372
2.2640000000000002,-18.94177562465318,-6.334030690836693,-9.971712724726636,15.644931209963184
2.2680000000000002,-16.253969602056205,-18.738732684804003,-14.638448173713437,12.333516216327256
2.2720000000000002,-23.001556380995684,-20.999072934507726,-18.280152843105594,3.8529124696907435
2.2760000000000002,-17.80474791056718,-21.45426320029014,-24.951595861122463,-3.065827350053303
2.2800000000000002,-18.314135738286154,-33.49146405671418,-19.035060879237523,-1.1402929800470352
2.2840000000000003,-12.33659248828783,-20.24308037987336,-19.552010520119236,-5.674795635617278
2.2880000000000003,-21.34435616225363,-28.702198788785545,-15.411261902094823,-13.072092384503359
2.2920000000000003,-26.27666272583243,-21.838346830668936,-11.507744235785236,-12.417747490028404
2.2960000000000003,-23.17268943079609,-33.26574330385593,-9.873425617208262,-15.179312649497092
2.3000000000000003,-40.44493915966318,-19.44138587606545,-9.786692945669635,0.7701592084182507
2.3040000000000003,-30.206495273992303,-22.93946525436388,1.633082501658262,4.404048015925159
2.308,-29.446267402277606,-21.724977092253987,10.601970741654828,14.124236128232694
2.312,-42.52542971884154,-20.43914847487168,6.950056891436281,11.775542751684545
2.316,-31.156885651873953,-19.48055202121054,16.964969692398224,15.719416495523806
2.32,-36.83318010131731,-8.449951930682483,28.52247244745786,2.3910313833439694
2.324,-42.154788813047766,-9.637488345995557,25.0758173448266,6.944083990481557
2.328,-38.36588562925916,-15.826647933368122,27.86345256017645,-6.325827422369897
2.332,-31.5228685206606,-7.093261853928534,20.052180433984226,-3.817152118796223
2.336,-43.205230046455085,2.0816226845724213,21.24781397044816,-17.11666446994031
2.34,-44.00024969179921,9.010691530773277,8.135881393510964,-8.334888666120762
2.344,-48.55066483942406,11.4582675606162,4.140789718583903,-16.768910766516644
2.348,-51.39874864196713,21.85009284780695,-11.18903635940125,-3.8225863013573504
2.352,-43.77441036814752,9.6561695268901,3.4240626989257494,4.688668841037783
2.356,-52.86200577527801,23.34548110460864,0.339128845405952,4.240628303131343
2.36,-48.756531350337454,16.23994163812453,-14.52159127258549,4.258377019171576
2.364,-51.91135851865813,31.255796656048318,-16.68002338750187,14.053464853766581
2.368,-47.41178132842666,28.489155592788098,-21.865851617775,7.187818478523566
2.372,-48.29616310559471,31.90638917572081,-17.73247725718628,1.2333922916936086
2.376,-44.808352488901306,25.659269376268853,-14.33587184204926,-1.0438527298711497
2.38,-52.45141841568732,35.86594218014949,-27.734990195308356,7.305493186803422
2.384,-51.029940202467294,33.49833939708027,-14.83936585682904,-3.2807562757524735
2.388,-54.22811578930496,29.38645830810809,-15.074300977169731,-4.167398943343534
2.392,-51.08487247879025,23.39942331180933,-9.068101522200912,-6.265547660058363
2.396,-46.38257947643945,23.978785520441317,-2.678827734926003,-3.9851103781317443
2.4,-43.76788273153094,14.099094728837535,-0.9410121938642233,-11.980411441652198
2.404,-51.32727374371874,18.06517411374854,4.455863476267775,1.422635008701115
2.408,-41.41402903051765,17.87571276583612,8.565697644260958,6.040407189007684
2.412,-37.91388191353851,10.603744569154308,18.542523127514826,0.6058069640450192
2.416,-41.442013217357854,-2.894109485736544,18.980358310677662,3.261191573583126
2.42,-32.832417212310496,-1.9529104205633803,20.124048014589885,-4.026329831688457
2.424,-44.68590853137712,-14.654265784312908,13.605775963104001,1.061713157156467
2.428,-45.53769512338809,-9.569315873919807,17.75284629850801,0.4125843273973322
2.432,-46.60617028132663,-14.138813337715192,22.58988685101641,-2.171259834636028
2.436,-28.535229686949457,-29.329437720688304,15.598747721135457,-7.748950196890663
2.44,-30.955527014664163,-28.924316502835264,15.053362393795481,-14.327546868944506
2.444,-32.6307214330245,-27.14149416952829,16.195050055331865,-16.505796851886792
2.448,-28.996671753131295,-29.256614940737848,7.699695017330624,-11.271242368656504
2.452,-33.99089269282982,-35.19633666453416,-2.040872982787169,-3.8580140146241435
2.456,-14.029971599980755,-27.939114627534238,-9.917436904672241,2.4011725691085504
2.46,-23.44157779520971,-28.68343380814559,-24.523453026128742,8.711822672993522
2.464,-21.30881435952225,-30.289389366938472,-16.252189467880044,4.752051416652047
2.468,-15.939850222366712,-31.80882577449025,-19.7266035284045,9.400011896099404
2.472,-14.827100000042316,-20.86197700800298,-17.693914042596884,2.519878012849475
2.476,-13.732658957456099,-15.311617398657301,-20.730060703438895,-1.2006037769375404
2.48,-16.38686663546929,-22.954220597093485,-20.62305562308708,-0.1765997595686084
2.484,-7.628157240040516,-20.078903059576838,-25.783553162576332,-14.949429195662102
2.488,1.8988430263371923,-10.657434672468302,-18.390781264324236,-7.886744392820885
2.492,1.7090144882140406,-10.701394346046158,-7.2518182780314495,-8.513145397400477
2.496,5.453717224208425,-5.203753676938923,3.6057404123661483,-6.484968145865836
2.5,-2.556078382155987,3.698265758623034,-0.4876269187280975,4.426281604329821
2.504,-2.4358081923044663,-5.0400127639139285,6.6128531111674285,9.212607513801931
2.508,4.389151142062485,15.50275907157436,14.397464266798298,3.7108252750779895
2.512,7.789904017481327,13.476875621174793,9.63647243757227,9.069464364993072
2.516,15.456456618075116,14.960602750991653,18.72062872646746,10.454328937580563
2.52,3.972171209668515,20.090242406753397,15.31867979424233,4.512818782811679
2.524,22.49983067615471,23.400799739201236,24.28465676102048,4.178438997082185
2.528,16.442106665830817,17.449506122861067,20.402760254332417,-2.2752854372954987
2.532,17.434277992122958,35.50455941096453,19.588800119227677,1.4576737740223038
2.536,16.795266456245763,29.524671868398922,11.49727186842281,-17.474268186935834
2.54,15.813400345756895,32.15581250508501,15.290866843903604,-10.122745111688605
2.544,30.374584417874352,34.64175712716539,17.78605565984865,-11.387983616847851
2.548,28.73003729227971,24.043139699638683,-2.5328938058546244,0.533638405546359
2.552,23.94671038602503,30.11967570020994,-4.205459709523637,-5.598960578579241
2.556,25.87740421815404,24.387594231315603,-6.204453682853275,8.577034610411458
2.56,32.548431799983845,27.34925115935605,-7.823673985870278,6.360323006209792
2.564,44.360558870842254,9.344218921270176,-18.20799628196321,6.152063176681793
2.568,36.414612279987246,15.896358900821722,-32.261692500034016,0.47264141005457283
2.572,31.798706841240396,9.417164150878577,-12.849797543753663,1.355865795841682
2.576,39.58824721542936,10.34987281869066,-16.158003970644735,4.169170315811824
2.58,40.852778426362406,6.110217943770124,-27.73586797833639,-6.00379594057214
2.584,30.024754518768354,-4.292032337410413,-19.92440246893824,-5.909868435287697
2.588,44.42059687497415,-8.811561090138378,-5.850029970937173,-1.6570581744513433
2.592,44.60738598000245,-10.181635137002955,-2.3960913897447877,-7.124501330907156
2.596,50.19747894689773,-18.270606955220824,-0.28059762990246817,-7.611534601328943
2.6,56.797606289484385,-13.423639091513467,-0.8805621697991564,2.336261075914106
2.604,53.90190708940251,-22.92553509620273,5.388734837359495,2.0960560094455567
2.608,47.51896272563552,-38.58195064273461,8.980444456403761,5.921165838534357
2.612,43.80166766668502,-28.34284707615758,19.332141034917807,2.3808032861877777
2.616,62.54736454224973,-33.48243518100581,12.507346477564774,13.679557980082137
2.62,50.19742859148601,-37.62499659916542,14.992132051481963,3.947839644677754
2.624,50.065698669755534,-36.16581737033054,25.01190750274551,2.1638235647223674
2.628,49.84384819647945,-29.261296956435398,19.42393773701592,-8.861055169880201
2.632,50.79710426099789,-22.31824502375701,24.988877826589462,-5.5253942791804835
2.636,48.801269225212856,-25.89131280930266,12.052703820612939,-13.632578697962341
2.64,46.24605250203322,-28.36235470613912,11.481813244155441,-10.219108771460697
2.644,45.84729193953174,-20.34802044622947,2.7504261294736754,-2.4563409030911654
2.648,47.76232309978875,-21.707130398178354,2.543478078404106,1.4668976895139174
2.652,44.432402938974384,-19.228240744654542,-9.89939935628015,2.3767485090639124
2.656,42.68963142833712,-17.513023346280804,-9.800658158468675,-1.9951841042464684
2.66,45.77350376176043,-16.219840648704313,-18.93697437049006,24.474618013254748
2.664,42.83967523464342,-4.960469978333603,-11.940648689559666,18.552167358652518
2.668,50.396297752596,2.2975969949939605,-14.513594350522114,11.318506552199414
2.672,28.27494591782559,5.508181065357697,-28.29705866699554,-0.0847733811082696
2.676,45.53588350315604,8.259453055498792,-13.291105841062574,-1.821293144152764
2.68,44.756088101277605,9.723879919567748,-6.534054693803753,-8.59495467180744
2.684,26.508704705867807,21.279139889262957,-16.656526576358683,-2.7289908291781853
2.688,33.419060519540686,15.023611146904344,-16.896513419696927,-8.667752830023542
2.692,31.443389041733703,28.370317090733028,4.486579472981234,-12.364098546819127
2.696,24.347009590945845,21.804157629904264,-11.568640234809612,-7.171312236641028
2.7,25.500179176669334,24.769519302089464,0.10053233434578601,5.605940712849817
2.704,21.766838109384203,22.266652373157697,5.871909106456695,12.818025975119527
2.708,33.94251229890617,27.4906205916863,16.360811584296588,16.084937072451506
2.712,27.657384996811544,34.59040506328942,15.489636994207661,13.765427609552598
2.716,27.076554524634982,31.33379411274099,14.393389031098142,7.785146180646935
2.72,22.01458795444987,32.03692213412078,14.265208473963249,-10.329716603720762
2.724,10.401921634274268,27.528589705543997,18.251425467334762,2.7391324546840288
2.728,11.024995444467484,16.6070443780932,14.61110820984798,-3.690389321067633
2.732,13.660410853608548,17.176794717083247,18.335667648243778,-7.005221946151165
2.736,2.640513904304127,11.207700403485411,12.58928395621315,-9.553385772120915
2.74,9.831653829077007,17.696611100735296,4.285516079400703,-16.141875972697317
2.744,2.564713285605971,0.7441795963498956,13.638219995567834,-4.058428275030767
2.748,-0.6175992655813021,6.7282926127834095,0.018302054140936885,0.674182698510656
2.7520000000000002,2.2982950688505515,2.204965184705594,-8.847348696162852,5.898592781947044
2.7560000000000002,-1.5450237189666676,2.4199781800990117,-8.203786726131167,11.578356077153742
2.7600000000000002,-8.071492507310687,-13.092169543687952,-11.41384721601129,12.5308233875597
2.7640000000000002,-2.9545039319424813,-11.547085251172257,-24.142598483411213,7.772725449592256
2.7680000000000002,-16.618854685468662,-7.422481656026797,-16.438302713691616,7.350948188177382
2.7720000000000002,-10.567918741144906,-25.2136019054138,-24.881532858025164,4.136869863113342
2.7760000000000002,-13.081674200518705,-32.59307821353634,-11.40539052261149,-0.7148350901099844
2.7800000000000002,-19.953959830803853,-36.544861743519405,-16.401327765519305,-0.8867642430663167
2.7840000000000003,-19.0881139384538,-25.192093526214663,-18.8860584605869,-5.829926759547732
2.7880000000000003,-29.234560913000948,-39.12959381119249,-17.416780970160357,0.40644991356706406
2.7920000000000003,-20.561024985753743,-31.8592265908041,-10.159912019852495,2.589065644403167
2.7960000000000003,-28.24422801892847,-27.414012391041215,-1.9098440353804769,-4.4192888279473745
2.8000000000000003,-32.002877717218794,-27.605817804704945,-0.12747064292556703,-19.18327774229642
2.8040000000000003,-26.13952193535068,-24.688018403617043,3.888003707612927,11.00169907165359
2.8080000000000003,-36.82231182442636,-23.37872824251115,9.926924936124111,5.74139756008508
2.8120000000000003,-42.17480497176038,-15.214941680070025,10.671647462389046,5.972847675127685
2.816,-44.65880173552798,-22.999490834532466,15.17052887582498,7.056044149713469
2.82,-35.495612382061175,-17.837585915344338,8.592168131377878,3.6446372888521554
2.824,-46.480496006025064,-14.202584921589732,24.82916572282725,4.314681386170312
2.828,-32.75582404986876,-1.8403403561195404,21.139733916182593,-11.478424422477858
2.832,-53.28597984910109,2.994663396581987,14.229261829153396,-13.093736156715668
2.836,-35.63227948029744,5.266978042128889,24.903939762292048,-8.107079736299784
2.84,-44.18626528728779,13.378164949394915,12.190787447811738,-6.395845010885125
2.844,-46.73742590107486,5.8510056682339515,2.1817731938177305,-3.6377628346069493
2.848,-49.874122228687916,24.09135945659448,6.790351778638853,-6.4220802663155085
2.852,-45.93040887910835,27.027871955644333,-0.516423588739549,-2.4044293746828704
2.856,-48.76976015785791,26.305651408311697,-5.389591126271963,4.3122968903468974
2.86,-43.59785312635177,34.238832308915704,-13.884483069107187,10.709928924375074
2.864,-48.951933041522345,19.17411914023851,-13.157786236625594,17.25025935364964
2.868,-49.05517164984922,26.339208483684903,-19.405332500425718,-2.5320535010956426
2.872,-51.78253469309874,26.131822012190487,-16.866037756344546,2.5776017420550246
2.876,-50.28078032879615,33.58608079800441,-29.485256838618653,-7.9167245407686675
2.88,-48.36232757695328,24.217913823849972,-21.190497640799062,-14.139065909692064
2.884,-58.23140748928356,32.077191823473385,-8.27578302099957,-4.213487297935918
2.888,-56.07522432092196,33.32141751303233,-17.526279395575422,-7.257144411786035
2.892,-45.147085708296125,27.523024046546414,-12.654264969500687,-6.196111675284113
2.896,-47.414754751024056,22.498254212273025,-7.213604435547218,-0.21240754236240988
2.9,-48.47274249652109,12.694190864270725,-6.074030679443217,-2.39859448383068
2.904,-46.62427745750372,9.553140988017987,-6.067606137844468,2.654349159349237
2.908,-44.024150104237535,15.876402820699667,8.48214148941619,19.37193233863299
2.912,-47.390869609110084,9.14743678878527,14.370239238981787,8.747412012984821
2.916,-47.40071136048785,0.558805266412592,16.624033167346976,12.723931089930698
2.92,-41.237169999612426,-5.849544735758537,18.296737516163503,5.909760227741652
2.924,-45.70882642393432,-18.31759743107633,20.17573892281736,-7.987960314748863
2.928,-37.27315782825865,-17.785529523220553,24.759952372327685,-13.90439054585267
2.932,-46.22548705799456,-6.834734966329428,17.1443101196744,-10.60005352745727
2.936,-30.869673057767166,-26.382633878039645,12.539851970079418,-4.542366248936947
2.94,-31.86436788436938,-22.167998177168162,10.350077621409262,-5.5691068797716055
2.944,-31.072649406902848,-20.68857981983356,10.259224852477466,-2.2750852381667412
2.948,-25.483059965002838,-34.026929545045085,9.566799064002673,-7.422129766330457
2.952,-20.03607523402492,-28.225399613534762,-5.64738336713189,10.56626132226003
2.956,-21.186881172974246,-25.1944305867419,-6.867822118548768,2.0210045583546723
2.96,-33.29205486174393,-29.878305243311917,-10.063917836169546,10.574687156301334
2.964,-28.25367316622523,-14.976028428711997,-20.373154889159608,9.771111057748291
2.968,-22.692776230338737,-36.37286456808934,-17.994455213255712,6.83576332618509
2.972,-17.101690907671724,-20.811869990666516,-26.97411430128426,10.374206218324764
2.976,-12.263783976506323,-24.45266165108098,-28.80578608726244,-4.778884936472588
2.98,-16.06321342401007,-16.67681240367729,-17.187398286441788,-12.625878801484369
2.984,-9.051665203335116,-14.811532715306697,-18.805932216694384,-8.948293093627964
2.988,-11.288194117804426,-16.779253985078096,-12.679540080467724,-11.979400955715352
2.992,-8.075674757520602,-7.766265485014341,-9.724548367076384,8.443635340392879
2.996,-9.545521393229507,-13.796274930614423,-9.855797986616196,-1.434999358817382
3.0,-4.616166230554595,3.0162375028568364,-0.22627150982211355,-2.0467028760935526
3.004,-4.24620711909342,5.997560003575353,-1.1917087817773506,-0.4630211049184334
3.008,0.13871947767404968,12.104548290526303,16.58993527204138,-0.9581627978237304
3.012,12.779488439076864,18.404064624963627,6.911090394273785,4.854171855595537
3.016,5.238504581560647,18.856167674851267,15.90763215519741,9.622979383455844
3.02,25.59640468242955,21.27686027685185,13.809772385666738,13.014495780898812
3.024,17.31866858325624,19.183311280792033,22.812640435369406,6.861778047582671
3.028,18.156326777200125,22.54440882184053,17.988588158166326,-2.5357713686145598
3.032,15.276894440954145,33.96354137458493,15.503207451214378,-9.320970756270256
3.036,25.35733772959155,36.49972073557567,19.676272580773453,-8.478810725226145
3.04,21.209494573896706,28.75024967128788,11.902858004237343,-12.103755150374463
3.044,26.868780571291577,30.114022010561566,9.945713283373296,1.7463489195325703
3.048,41.163870147681656,24.62588011247141,-2.3999650113010347,-3.4328497780241474
3.052,29.91621538610704,33.61610043137095,-9.530749390923669,2.055209580414961
3.056,38.0991647099005,29.052883804268582,-6.826451243492646,-4.233641065816646
3.06,30.711473170805043,32.82148446559248,-13.349936823323112,8.533390930337713
3.064,35.84050879191047,15.588740637128817,-12.27809149324586,14.005293197111651
3.068,46.56657221498281,14.501790906937176,-18.49608331263311,2.366519542565208
3.072,36.17958631789208,13.588497042426463,-18.620368318400658,-0.07235614561746173
3.076,49.87920532584373,11.421005754148553,-28.077447218271658,2.7102227530254024
3.08,45.75515595237813,2.6816588191911848,-9.578945627831747,-13.261138640515107
3.084,40.696853854004864,-5.118708315568551,-17.707768435200556,-3.759265486950526
3.088,47.854109902840804,-0.8436541246404925,-10.203007266877725,-12.640986735148221
3.092,50.624830879179484,-6.022631481488175,-13.815531833132646,-10.386120357476292
3.096,49.82549693391661,-18.368766321463198,-3.4337482322103727,-10.436928766645106
3.1,39.701702215305374,-10.856343563246778,-6.51422381762402,1.890231302139122
3.104,44.63339606253938,-15.228505547982309,7.234136934595414,17.11689666616402
3.108,47.625813000652144,-23.375527059887297,7.855203060105332,12.350765452323426
3.112,48.962130064893145,-26.070747481168457,13.836894638251541,5.658840974580031
3.116,52.78392601375381,-25.519427221206332,20.376428660690877,14.726373452117507
3.12,50.78984142607984,-33.777132873141944,12.858428769801623,4.294454793253607
3.124,43.3193304166403,-29.82852678339727,16.538075915501455,8.125757242780736
3.128,51.86546288705928,-40.570257038646176,21.93236642000764,0.3521364839752299
3.132,52.85960918357773,-24.57917093748355,28.58764842205411,-22.420840255116588
3.136,52.32202352448777,-35.26470129083678,14.719853182208547,-14.843270672061974
3.14,54.51826616420752,-17.812738622915553,14.711385635469133,-4.788639048774591
3.144,52.75119741847822,-24.278141891915393,6.827633704400932,-6.087184698561621
3.148,50.22198984701093,-20.47001375673913,12.21789264506765,-7.6056786101878675
3.152,46.79869823734998,-18.893908429261547,-11.242773006112548,-0.6810487058203347
3.156,37.949055674143,-13.18140437472648,-6.889385830346652,-2.685712041160108
3.16,47.389443718963875,-0.368039889205348,-19.88342521365987,9.068698725319596
3.164,45.152999757563265,-15.449894728212008,-27.94312270819925,20.876321137365743
3.168,44.23422699565943,7.892156475834005,-16.609230783731338,11.729799381419474
3.172,35.14605208068912,7.681416820940873,-18.948256033836433,14.63333053278912
3.176,34.67306654150242,4.304179455949285,-21.384719257276437,3.1586531133068436
3.18,43.79142640545399,9.076048257805258,-19.552100776101753,-0.7404558061614921
3.184,36.67788009862529,26.619874066879284,-1.3950613396840357,0.8221229140649413
3.188,38.540001976805556,16.881736346923446,-14.981817808730792,-8.09395098757157
3.192,33.44218525236498,18.723424968535717,-7.084451675784019,-9.379415862554605
3.196,31.53334876201369,32.501815436361625,-8.220621841366349,0.34575084209304485
3.2,34.080681644503706,30.224459870284136,1.4761628752028588,7.269201185609267
3.204,24.739493695626486,24.910950443554047,3.7826293680191037,2.4177135274561943
3.208,25.661763966492988,31.080756203137582,7.582481068385967,4.835433843320195
3.212,20.667616587549038,24.58507935269817,22.785434779575425,10.674547446437119
3.216,18.546297912502624,34.2597606626343,22.772483325962156,13.205764859318379
3.22,16.86036701689051,32.451666398346184,19.70486356289922,9.868307766232551
3.224,17.15784934852899,27.577907969984164,8.439474888845613,-5.867505665295191
3.228,11.25385366754898,23.93369882698029,17.84069889831094,5.876784808469896
3.232,17.492318675336573,27.636681463057755,31.61167887134573,-10.910957074742262
3.236,4.278116437666347,15.107127686014053,14.256956522317328,-11.14819749172976
3.24,5.332303457408284,5.134365953436306,17.271792906117653,-14.023836962890595
3.244,1.5676849850257843,8.975492392642803,14.57220306345621,6.646173120398829
3.248,8.491394193935362,12.690039413523234,3.601484250565893,-1.276545520208645
3.2520000000000002,-0.2737308896090207,-7.333601631767277,-6.715772830627167,-1.767976531758963
3.2560000000000002,1.3928824209463202,-8.53543666195154,-19.53905271260801,11.165088809099124
3.2600000000000002,-13.694463543400133,-8.961506390033378,-8.334889002804907,13.356244059501783
3.2640000000000002,-7.415901619417417,-15.37822029410156,-19.484044869633497,8.884237389387476
3.2680000000000002,-6.765384069351976,-23.742258740607735,-17.21578878988202,11.908165991674675
3.2720000000000002,-13.23617682948909,-16.516104239593087,-25.894846712520575,-0.44521427730744634
3.2760000000000002,-10.719778615033857,-13.31767336578811,-21.28672227091643,-3.7179237103894547
3.2800000000000002,-20.99266988473575,-26.164154278861133,-18.85253505139768,-15.928935795755375
3.2840000000000003,-13.67204184873648,-33.275995119201376,-15.54359060481876,-15.66802594575805
3.2880000000000003,-11.48450241297817,-37.45864539616692,-19.26505305533559,-0.9421132559292644
3.2920000000000003,-26.995352883986534,-28.707751420008574,-3.650518738227511,-0.23613611640855758
3.2960000000000003,-29.547229943717376,-24.081191609654695,-7.958271666956668,-4.488593497772083
3.3000000000000003,-22.122340229035085,-26.155856756377677,-8.372347302266245,8.314657235949168
3.3040000000000003,-23.486707335881555,-26.82726192913209,4.428680643480005,4.017164307975836
3.3080000000000003,-35.914893507478894,-27.436535780461842,9.80695002716654,7.226227742180571
3.3120000000000003,-37.233432575421865,-27.070088910227604,14.493889284432703,10.262820526610508
3.3160000000000003,-38.28457891221123,-14.064152299213578,23.69722052846593,8.423662548042183
3.3200000000000003,-45.24791469396098,-9.88375211612321,17.83888614222381,4.80187090512373
3.3240000000000003,-44.671608975964844,-18.0679366286891,19.3624364467216,6.970322871390431
3.3280000000000003,-46.5504987935511,1.9578954754714317,14.129823108408296,-2.9305672570658237
3.332,-46.71532063520311,1.363026559076441,22.19930856375998,-4.142723605588712
3.336,-44.287985758681536,10.008824671265081,16.33181017590666,-4.665969880900127
3.34,-44.070278960618275,0.7500578725198839,9.655566409378896,-7.569636184677962
3.344,-38.50135787765251,4.912089228038444,-2.160882413633183,-11.696827688828531
3.348,-52.14129699833712,15.010392350002107,9.728725646561882,-9.251228316469094
3.352,-43.00447745848577,21.925600981559164,-8.645064493566265,3.2308020456849698
3.356,-49.65153086686121,31.609345536717626,-10.318881100541697,5.989189535161908
3.36,-49.36168108469654,28.86023233413594,-9.963982490469313,9.947522307552093
3.364,-46.148973823999526,26.24382879456729,-21.393054498598914,9.742602311044044
3.368,-55.4202905649701,23.829603126668637,-25.564089940586015,20.62300072859087
3.372,-48.052424901109205,35.95834217919597,-30.265482928077,-2.9698857513594135
3.376,-49.16379116912553,25.15515705046411,-16.35554980403727,-11.20306368474839
3.38,-47.43908010137283,37.61096029572235,-21.74706154953469,-4.215968355326664
3.384,-48.23472230646135,26.86779282875349,-2.25020804767383,-10.93038329760103
3.388,-37.05779651083893,34.42164715613792,-18.6627174467282,-8.399927935632965
3.392,-52.05210609966628,27.44166599642295,-14.242328599179256,-5.523864143600355
3.396,-50.924066716672854,20.394521646753397,-7.800762594724237,1.6029867348772138
3.4,-50.668528446881524,15.036575709644026,1.2156732756919948,-7.536129101920143
3.404,-49.49383271863196,12.08285643191424,2.6227810493703503,2.033947251731167
3.408,-48.948994267578485,11.769891756092743,12.69673455204642,10.587085549423698
3.412,-38.74698855202552,5.636474250347424,8.798000168630317,13.832585262718833
3.416,-36.406666493527005,-2.215154177043404,9.978599917722397,20.01551827610212
3.42,-45.07012774384822,-4.588154058517012,10.030056628857436,10.656372378494318
3.424,-44.97874040138032,-7.79567291692347,8.842663728879444,0.9693893562117105
3.428,-36.95734382489899,-23.074937901872595,17.05539991719856,-8.133424291559745
3.432,-40.47368425821022,-14.100989828084353,16.59163948735433,-10.526581691352916
3.436,-32.85079215561784,-24.878962146611173,12.253079718100139,-12.786386622072339
3.44,-33.212740192178096,-28.882059299302412,17.972734031785407,-6.234397020382785
3.444,-39.9315186534584,-34.16252142136298,13.502642101734683,-5.560483831358086
3.448,-22.65898887808011,-36.721778694372986,0.8326497340637995,-9.105146725859662
3.452,-19.384059090860205,-35.92618950300167,-11.47627023724593,0.3073915261964122
3.456,-29.32267495048684,-33.429113062447605,-10.19601659396856,11.233208826543784
3.46,-26.026191504765634,-20.17450616521534,-14.754812015434748,11.268876937821823
3.464,-20.426461378922212,-31.947442086521818,-18.695939666905858,12.666095587350803
3.468,-17.896399391925232,-27.141117742358293,-21.58513556881158,9.61974097804426
3.472,-13.939424795361756,-24.103105707554384,-22.913059493197736,11.813399199891446
3.476,-4.8010563850202015,-22.933327033019296,-21.893242648054237,-0.07311701652105129
3.48,-13.319230495713,-20.923630481490804,-22.198835819980996,-7.807966512277854
3.484,-13.976985248412786,-22.994537291799347,-15.844945966912448,-13.627045730327913
3.488,-14.407875596110461,-5.858835258131881,-11.889098539049426,-8.732219993234153
3.492,-8.672735942270467,0.1247357708781589,-14.188298917946979,-20.64679932889571
3.496,-2.677850773357393,-12.920061144236648,1.3815288867380708,-5.738981750180713
3.5,8.972789317588854,-5.120142954431839,-4.900311509203385,-1.0291992996070334
3.504,-0.07584058619262102,3.1077159617374606,-3.1152053257796455,-2.004817527069302
3.508,6.137025500755193,4.08855847275961,11.538963838859239,3.801950061739973
3.512,7.429164975673895,15.643300766807375,9.603901446501993,14.028554935023916
3.516,15.92746539296077,13.376707461769453,18.49301586382701,10.20182927003519
3.52,25.069156487610694,31.36169351689331,7.002787320400364,6.386794191461509
3.524,12.197735214250182,29.541395935816595,26.922814275980773,2.7850700053030732
3.528,14.784948946134634,27.168382793246742,23.007212054775827,-3.218107587101948
3.532,24.78948772720556,33.16479959029685,10.59415830350537,-1.4908196134663365
3.536,25.26524578067814,34.84754582883237,8.01637923628454,-9.205726598768589
3.54,33.32122033376573,27.121064412556915,20.117034566337125,-16.801630732045297
3.544,29.17837242469458,25.80292205158539,3.6755915362040863,1.3051787650849143
3.548,26.566987002402374,29.539667302288432,-1.6642595723769462,-0.635197535004405
3.552,33.34978903819183,32.06049682752354,-13.836925142032664,-0.45936978232662895
3.556,37.89631598138664,26.421101679076898,-9.116382081701195,0.5784624678116881
3.56,38.3297662024213,15.23041487231863,-12.894303120028317,11.490136267741796
3.564,38.55182139993176,15.96623380327347,-11.83279937166823,9.237012482415048
3.568,43.04594248475102,16.021966084056572,-25.09193319024279,15.575866357919903
3.572,45.16089955905927,12.052939408169275,-27.247178975776777,1.9517091235128823
3.576,47.72775749104671,18.051268949468962,-17.705721394683046,-5.440236284055373
3.58,45.45994571304895,-3.1699427050654103,-13.987479969767849,-1.3988714317448325
3.584,42.673597331891926,1.7740433458791338,-24.74232026562975,-4.421861061076012
3.588,45.425639639729816,2.194873772383331,-8.283371687074926,-9.137010446231725
3.592,51.794603463587606,1.7289404328981206,-9.447364274600302,-5.061494016645673
3.596,42.63176876789445,-15.809382934564551,0.48522895207626426,-5.005972344728223
3.6,49.39619235912215,-15.176410305173068,-0.3511018075882592,1.1693255050460587
3.604,46.30238788002692,-18.230697307971926,-7.63759184414258,10.642491153836836
3.608,49.00713029308375,-23.069600888359922,8.875236570453907,11.56987092512754
3.612,55.72655652342986,-26.96296279924506,18.99166121193014,9.133895092619593
3.616,50.63606086609994,-26.10983912928556,12.417828414621574,15.810083254291072
3.62,50.13351916219431,-42.129847947959114,17.0813054813658,-5.946424341032801
3.624,43.19677150529121,-26.568336728904516,19.079867050810552,11.5136988927525
3.628,53.69574146216557,-29.177449797290468,5.148175615231381,-12.21104100130037
3.632,53.03410136286399,-30.073823648889505,26.453278926507704,-10.840596551619477
3.636,60.339344901359866,-17.22292420002979,10.903386456030008,-10.027460183262203
3.64,47.5754713616694,-28.704507859013436,14.284382208213371,-10.24296851659231
3.644,49.6773382840534,-24.642921367408167,6.928985372952709,-1.8134158591542642
3.648,49.17300786942252,-9.453912336059755,8.794759953082837,-7.776081964699673
3.652,55.036793193460596,-19.915545423088503,-0.47638405914541826,3.7907329590636083
3.656,45.7773826797882,-14.491786419798617,-8.537112411298423,3.9544105681881114
3.66,46.63646025215265,-8.195823732100008,-16.223280508446063,10.986270059638695
3.664,47.15404387033041,1.1928209651109012,-11.421011348605049,9.499011208297517
3.668,43.80937842546436,2.5463420821598244,-27.463747569093556,8.16981069117266
3.672,39.29762688703802,-0.4718273203292114,-16.416292913194287,0.9316213645251659
3.676,41.048799208035284,7.678444879599195,-25.455758326339783,-3.803652086123586
3.68,43.89382088808833,11.415838056990557,-12.759712016119927,-4.441489952787451
3.684,31.743079370853277,17.851803704722855,-16.080060796726784,-4.329692995880005
3.688,35.797346860676825,23.73848903978609,-10.470323279323402,-12.97166395527197
3.692,29.799989297016815,26.581206300955486,-9.225129412910693,-12.78711697788469
3.696,37.35980120915919,17.93518395429586,-13.735683219001814,-1.750235912657728
3.7,21.773328090704855,33.85140042665877,-4.303645816976731,-0.16251946528848615
3.704,24.525108100355418,30.86342255621919,8.335744431354216,8.970027410947102
3.708,27.06721945711069,36.92029156408401,10.46835256883344,3.9142931881643612
3.712,30.806613177245964,31.934834407352948,19.59589164510225,1.0830726571655713
3.716,20.390027744299275,34.26226845920003,18.902931325226078,6.38325011552859
3.72,15.630230000767728,29.477538131231256,14.187620872389806,2.046089476599569
3.724,25.45296583756339,31.64900575688832,15.980213879962248,0.859390335241752
3.728,6.407527273785157,24.736646700833965,20.16033196718995,-6.865471598198769
3.732,0.21950826436857263,18.34116460650655,6.526320719319735,-4.000047671075838
3.736,10.951225199030539,26.470869651307538,23.777474283630717,-11.263623819399466
3.74,3.756390556452036,15.488922191939597,13.96443872773705,-8.758192669081957
3.744,-1.3398238092568948,9.596844933503561,13.497664038937986,-6.057298267082217
3.748,4.798287008663476,-4.121717916854205,-5.396355032759945,-1.512123409587431
3.7520000000000002,-0.037501203310887465,-8.701342253155897,3.7161611304903195,2.366253319373558
3.7560000000000002,-6.586733430080484,-5.264545417772116,3.7950035014450654,9.398474511338549
3.7600000000000002,-12.668183671569734,-10.316130591699615,-18.36009682273636,5.532289493822616
3.7640000000000002,-4.388866307362974,-18.179308874114607,-11.553255880996996,16.81996214055629
3.7680000000000002,-7.962532157675843,-18.125827340660678,-18.090991325884062,6.522445510915008
3.7720000000000002,-14.143476094763114,-14.182258880527593,-27.367914255815,-2.8765001626466424
3.7760000000000002,-6.813995510122274,-21.44086460312302,-17.496114709306067,-0.31296555068444487
3.7800000000000002,-23.756651465864643,-32.84985412274426,-14.853114301716342,-10.133754935162123
3.7840000000000003,-28.34640490428806,-29.313197806236147,-19.892191273384423,-5.72159785211591
3.7880000000000003,-26.43853338048063,-33.73867517516238,-7.861359517297731,1.0677605959291672
3.7920000000000003,-25.409090163565725,-31.93613090815729,-17.968890515980156,-12.37613971280932
3.7960000000000003,-26.103020090100046,-31.66865665438417,-12.447578475544919,-3.1556750748968687
3.8000000000000003,-30.59544290390523,-30.919923401874552,0.6829869779438599,-8.77752794352304
3.8040000000000003,-29.624291081963623,-33.0909195844049,5.1007241331587965,7.087062888224198
3.8080000000000003,-39.55829049266477,-25.12845092910615,6.052206039913816,4.014710256021723
3.8120000000000003,-27.913675469576265,-24.41230893087357,17.738914298433418,6.856094192110322
3.8160000000000003,-37.286411759871534,-32.88515238084951,19.541030081120038,3.5418380754610617
3.8200000000000003,-32.93918298084895,-4.1877501005426545,23.31182568057323,9.538608653198215
3.8240000000000003,-38.36472251165533,-4.895439424151893,19.34485239180409,6.2898541230094285
3.8280000000000003,-39.246028864021845,-7.872803040057198,22.658646354465443,-3.5643194535544107
3.8320000000000003,-40.02749640852163,-1.4132342966895313,15.868289534170232,-12.02726595443677
3.8360000000000003,-41.876018521661045,-2.847420291051081,25.679358305948682,-1.8752573267675974
3.84,-42.027738823963155,15.939311003999972,7.692976195239684,-13.262615801724873
3.844,-39.60809769106073,21.227653478981374,17.888978200985587,-17.655632558924445
3.848,-46.16692094613581,16.538707540071016,2.6811044067333714,-0.1949538218634439
3.852,-44.381070662926135,24.52933206801006,-9.384219119129245,-3.0369744965595764
3.856,-49.03026511716979,23.503975316752555,-0.5220943012502719,11.788515026782541
3.86,-41.91377645918701,18.646210570680502,-11.126198103874172,7.60487667958425
3.864,-52.905032795128896,25.398118333809244,-11.154644363614366,12.841438710007935
3.868,-40.80197829260452,29.621088998857932,-11.97726145660738,14.71263416051875
3.872,-50.16526338525118,27.53560072188297,-17.95596724384857,-2.363048796256442
3.876,-57.14992772078105,28.885417792042496,-22.921738792629515,-4.08301799010491
3.88,-49.260814346859625,29.011619734315136,-14.142563437556968,-6.256207886209665
3.884,-53.085823813374844,27.885323587458807,-16.882780972767442,-1.360513929488385
3.888,-45.13107946544978,26.730029245536,-10.261653025532066,-13.272180873984977
3.892,-52.12652607492166,18.743984214143442,-20.403726350991853,-11.415797734765334
3.896,-50.49999910773767,17.49441834832617,-2.7388891582484067,-2.426833863238627
3.9,-57.000529469485365,11.210636240274315,-3.1929291257254837,-2.886143628553188
3.904,-48.97797871907607,18.676473567075853,13.240345929189672,5.580166155505167
3.908,-57.88145526419068,-0.8999264149848436,12.75051022147944,0.6855921501793079
3.912,-52.6115853249919,11.01864348584286,14.890230847820158,21.05191699706569
3.916,-39.7071144527548,7.685649849614573,19.318108476791167,2.309724373113368
3.92,-38.28739548184668,-5.270899941841725,14.028926061519421,4.269089002973844
3.924,-38.689674726934356,-21.204243504656304,28.076818021205668,1.0909271564330703
3.928,-44.14930232247709,-14.237820239634772,29.602597106658344,5.88219514493743
3.932,-37.951125817515276,-16.712751208471744,20.061108602061466,-14.329361332421596
3.936,-36.03346393984824,-25.03334712267216,23.36228269838417,0.0956481701069265
3.94,-40.01917874239732,-25.691489252314753,8.909964052486833,-5.7246810574414395
3.944,-24.835806569636496,-18.074823691492558,3.376923222568993,-4.759994437170921
3.948,-26.009703431852067,-24.427680393525062,2.7112884149308063,-7.41006730673843
3.952,-29.46826832548614,-33.77177255933067,-0.3319594794461742,5.342605081838509
3.956,-26.12430230309226,-37.87200412227229,-9.332424459909008,3.2280379471877665
3.96,-23.04576966534796,-31.575888440896996,-9.066864094006657,15.843871428943448
3.964,-32.0644626746682,-30.38532760379804,-13.878317445148571,4.967562361748262
3.968,-20.804570254463354,-25.54887233688195,-23.08807492577568,7.1393399554774515
3.972,-20.64206739871491,-28.782096202924023,-17.051779927315113,0.9048800867811817
3.976,-19.860179128326536,-21.031155087289378,-15.642893355957826,-6.190947147777992
3.98,-13.839995822672538,-10.860642977559857,-18.16378373795122,-2.1712534383848867
3.984,-0.9970663914729183,-12.940563361581301,-11.123317993731883,-6.370976787611994
3.988,-4.307065149702788,-13.353915536182015,-19.77796108605882,-3.9352162897777534
3.992,-7.873980691474868,-9.826999802577966,-7.295321371375168,-17.342654796061062
3.996,0.35069799779237343,-6.290133344521964,-10.825201275281408,0.5033167706876709
4.0,6.996777182929913,5.903204562260546,-5.570406791165634,12.527244526784273
4.0040000000000004,7.135384323552423,1.3702004438665867,1.8191435746087543,2.559331295132969
4.008,5.31623759216156,9.13736099231107,4.9247725641628595,17.919022315564867
4.0120000000000005,4.2765955675101255,13.369462508934028,10.950963024868502,8.664460923983619
4.016,13.476615593788287,14.509147509744666,15.815806956484192,2.186221836853793
4.0200000000000005,14.401921285351667,13.674085438440244,23.20690275756015,4.349690310890338
4.024,19.328045178990436,25.20352548218681,18.354739375036896,6.494352174019786
4.0280000000000005,20.408005167135915,25.800492780809055,11.717616480725724,-7.872127938504861
4.032,24.81644691845686,30.53107062088126,23.796880281796373,-10.706825722790057
4.0360000000000005,19.179612274744045,26.650042174850118,11.224814187440332,-6.8551753458210065
4.04,30.67465403325718,36.04490834691336,11.46210291032625,-9.495264579258643
4.0440000000000005,27.24672952152705,25.50013936823594,9.595173588396797,-3.922356296852934
4.048,38.73975181946399,37.70915340752971,3.50471676329997,-1.2977511678568403
4.0520000000000005,26.950575794282713,19.014133655892273,2.9642330663210106,4.885025469406688
4.056,41.032617094298345,27.899650008593948,-4.967475336729738,4.6839651302391605
4.0600000000000005,35.216909213747705,25.49255069590634,-16.062252944335185,10.669219873103568
4.064,32.758361226323025,16.002570683323448,-4.51745398555742,5.186007478807235
4.0680000000000005,35.29313986653364,18.513800091333003,-17.124873732629297,14.147300540274728
4.072,37.712685065859304,18.828860778599434,-20.38244614768128,0.509871942760344
4.0760000000000005,42.93779226786885,-2.8955361312509904,-15.140907453287571,4.390905102103793
4.08,44.830573715278234,6.27372104438304,-17.773875596252598,-7.045887327839357
4.0840000000000005,40.64068771378347,-13.220256964951245,-14.890417545343329,-8.038275470873856
4.088,44.57029824625828,-10.079015786873926,-1.2300221255705264,-12.455090038736236
4.0920000000000005,56.47341042410528,-1.4824764697117185,-11.01068062330954,-13.523256410860297
4.096,55.354162973334184,-16.696305985604805,-6.562602213383828,-13.541338679043438
4.1,49.7344441631277,-23.502957390818736,0.5828925600616919,-5.276620792962925
4.104,48.45909933250472,-22.06918773888901,10.331377421201928,3.1979924749372177
4.108,49.46356281200089,-13.707477855307964,2.1024033310822094,9.50267514916451
4.112,52.40188707404545,-35.62714802907854,3.863162661191348,15.032163850699042
4.116,44.56660270000835,-33.54626563498243,13.950982156939167,6.819483225676267
4.12,48.614453734296845,-21.981459105962507,10.851515530606488,1.4680487015892538
4.124,41.65313184080285,-20.690172461529002,17.836377830937224,-5.9602415943702916
4.128,51.960589245055864,-30.325495437051654,22.15824349522022,-1.2809274373262838
4.132,53.04266015567235,-35.156712677631674,13.642796731559438,-0.7891598511106306
4.136,47.1071389733357,-16.97801766958188,8.276131971609455,-3.4912211675053317
4.14,56.98429635288464,-17.357625806314818,12.102390854426483,-5.960901422215454
4.144,42.452758330722006,-19.232806483272,11.675208476769495,-3.6527544729489567
4.148,40.60421504981975,-23.47369059177071,-5.968202521296016,6.001220026897217
4.152,48.27178588744309,-16.000385603028874,1.5944973202434172,4.147306178733009
4.156,51.489351854783735,-12.543010410341079,-3.275960035001501,10.07611943940741
4.16,53.6609910805903,-5.806440091868097,-6.985279535066159,7.906645853691477
4.164,41.82014000740302,4.244155745119602,-9.31786378115666,3.0126556530133035
4.168,48.26973697683905,5.904414751080038,-7.086471426022442,4.285887925259814
4.172,41.33725261228734,0.6044190305080805,-21.426205257668943,3.6354503341740365
4.176,39.21521274383966,17.221769945333413,-19.41267666817616,-0.9494054731362126
4.18,42.94396182622307,16.01827092311644,-21.103322492143217,3.753576751352286
4.184,40.13727025997567,21.673237910132478,-16.876674286261142,-8.641884686704936
4.188,27.250537705021458,28.941975043029792,-6.026575340392718,-4.0860500641545405
4.192,40.683295120342166,18.932276273947735,-16.36014590168803,-10.618665462901962
4.196,38.28502483527251,26.636114831005454,-9.279046104125145,-6.375916169843479
4.2,26.261449107076093,25.87442273205861,6.8859046825228845,-6.645038186117163
4.204,29.298735003900717,21.761281199408618,10.073980277806767,1.1058966766335905
4.208,27.65131101320179,31.731181214139077,7.819415247949433,11.078186211839233
4.212,24.28236186019412,42.27162552882174,17.96295212417716,10.018068186253364
4.216,17.967253280437124,19.55526494799252,18.59263772250045,13.76296362414638
4.22,15.048110794543803,26.98340851873337,26.522503370907728,6.7841222646507235
4.224,15.919410135403227,28.120591651248105,20.333082537699323,-0.5089363225461381
4.228,19.51124187216321,22.740784529026715,24.773905583936763,7.060238792088393
4.232,13.931538820441155,18.26510057614255,31.306600601783554,-8.174650271323031
4.236,6.89808128833336,8.612614231844212,18.400760630753773,-4.0078676587601745
4.24,10.125155231456826,12.207670295241172,12.002345874823387,-11.516611195674813
4.244,-10.476372826753341,2.944302943402094,10.97472597979894,-3.297473662369433
4.248,7.0003332740272395,-8.689804359055058,0.6802603802669231,2.1531794241096294
4.252,-9.955073666057011,3.7131569367315307,9.433173856337584,3.5293587245264426
4.256,-5.578544983412491,-1.9361937292709408,-6.462135865213881,-4.926943554195946
4.26,-11.865011151345616,-10.785431696284409,-13.120371646976515,9.601827467231905
4.264,-15.224560327368215,-13.963322608044312,-19.588709880615724,15.975172746086834
4.268,-5.409404110576194,-13.459150775142986,-12.610440091288144,10.342536592896623
4.272,-15.986102782425647,-21.003695236855,-15.309807950435104,5.91043990299289
4.276,-14.314661081706676,-20.39778920206781,-22.447306425635944,-9.864617005429894
4.28,-18.640830528629785,-28.63222257834972,-16.13887360029076,-9.480127876300545
4.284,-18.33357491354843,-22.195734977651387,-24.42933835110471,-6.991482368902899
4.288,-22.594883575773125,-28.10991414123612,-12.76608924320798,-7.928350900348255
4.292,-31.59612120273076,-29.027371608085115,-7.37129172165159,-2.3699453543561004
4.296,-22.338383239477796,-35.95088376979615,3.56285130449953,-5.541870516747161
4.3,-31.858045530430136,-27.096916217346056,-3.8540940136437998,2.0291204333687185
4.304,-39.16747755783385,-30.975017312010287,-1.4179654007146194,4.899407950673536
4.308,-35.44116917654209,-27.681591154158305,5.15793367740824,3.508565572511843
4.312,-27.628699536771002,-25.686148888217794,7.008099616999475,-1.2986893711909975
4.316,-32.62454715734098,-23.569083590334486,23.569845298834966,11.203318985310776
4.32,-40.26892281082887,-3.82875320796637,26.764326801023188,6.747588564988959
4.324,-41.824637765135776,-3.682592385293459,21.561617458309577,-1.8375428748578462
4.328,-43.13797021587767,3.6105380952888595,25.752219742999458,-11.777110809426382
4.332,-32.49259289187826,-7.621804643171429,18.766332952221816,-4.556434855713832
4.336,-42.204884060589855,3.3671201950909566,14.934706617012163,-11.152472878264586
4.34,-43.09114438734553,0.993158488924939,10.090516950580712,-6.72619155111083
4.344,-41.10244307156367,8.262735619131062,5.81053609680556,2.47477159277204
4.348,-45.95558099951058,11.164603981756045,-5.23234311025838,-13.194053273247746
4.352,-49.22130017997231,25.609598879290964,-1.1853908532500803,-1.0111051718625972
4.356,-49.56333589115855,20.64639303157398,-7.5641606047636065,5.798592992727185
4.36,-49.47236883350476,30.671734433530567,-8.028901425460141,16.78469603368481
4.364,-49.709182467381744,30.477839626570027,-14.942647373322218,1.640857411254613
4.368,-46.16853273897373,40.479642925522256,-18.910059557166097,17.384437556160545
4.372,-49.70474420299296,22.41111819990164,-24.001710164611872,4.360525034678511
4.376,-46.33285182411291,36.27485037815168,-19.599768384456624,-1.7333356443122903
4.38,-50.30491932195649,35.200821873864385,-15.329944171822195,-6.868151339019434
4.384,-49.28738957441995,23.422821886650734,-22.603253465459353,-11.229585685560538
4.388,-59.32530063305394,31.50440347541449,-13.25357335017038,-4.739683487936968
4.392,-44.28176780489723,25.72773436125722,-8.469858724387025,-13.78588302543243
4.396,-46.53663956217381,19.942117794198374,-8.564121661388324,-3.0904658327977996
4.4,-42.562775265459344,13.513880133914352,-2.939281524539648,-1.920908328534525
4.404,-61.19772401379914,10.191848561399128,6.126851987127656,1.0068694984461999
4.408,-35.32018510714212,19.877368773145825,3.9679683905709515,21.373155133439482
4.412,-45.39001934833916,5.2541058640458775,15.440560694820725,12.075520958050014
4.416,-37.96827364978871,4.664552870957035,12.40978664174443,12.114598247965812
4.42,-47.415925910728504,-7.714493915266996,24.335398791068954,11.566736426268562
4.424,-37.75309301054634,-12.08782279662778,31.64967329550698,-5.853417390950437
4.428,-44.581499422699316,-7.021343383548396,15.3419610060647,5.080214018763501
4.432,-40.83141384028418,-23.13971145978583,20.76758036119371,-20.24991832023335
4.436,-26.445294475061477,-22.05642486255378,11.77655533110617,-13.666704557479347
4.44,-35.18076730025109,-22.945260227912776,16.960475914837897,-11.805723528845842
4.444,-31.26563371257364,-25.168936676609366,1.0361990082677135,-3.936854234434536
4.448,-26.04617623128638,-28.647782630114463,4.909598463424639,-1.3933075409411
4.452,-25.88503801647481,-27.169853081960497,-6.871609505733112,1.6528251681568384
4.456,-25.50663697234674,-26.419729495206127,-8.397413999185886,6.785484336148646
4.46,-22.262878692754608,-26.267614125551507,-16.91083142158571,4.6204500453385835
4.464,-9.83871040635506,-34.24706275038485,-11.29851250103695,2.3367105348660395
4.468,-19.856777327028304,-29.4506437633423,-22.28144282151839,11.337690539438098
4.472,-16.226650925150757,-20.131698330701152,-16.885923717914714,7.149776089527329
4.476,-9.598807098813914,-19.11541702622947,-21.681024709877125,6.669139540142722
4.48,-6.906864693452515,-27.400710435265875,-19.593492184897457,-9.827938007000594
4.484,-4.05034749791864,-15.260668972041803,-16.14777897303964,-5.5841944731555975
4.488,-4.317628345891926,-23.00459924640165,-17.500065476867803,-11.398800926106357
4.492,-10.733110306213312,-8.676572937009054,-8.583237914330386,-2.4909043290530564
4.496,5.654941752517048,4.982067410107888,2.6778750784757372,0.2922771423742585
4.5,-5.73172696509355,-4.739463586345343,-3.8904739291636496,1.0560469961222052
4.5040000000000004,4.025393235183733,0.3351524461649591,10.832848459666492,3.1198859576873756
4.508,1.2467064924638875,12.731396355175228,17.12556164947261,13.24794014806108
4.5120000000000005,7.19058772307302,5.3994654234801605,9.610167173434057,13.214789900565588
4.516,11.629311077237729,13.854293324377636,9.61128548458744,5.626068514229363
4.5200000000000005,14.041280435494274,23.518618865769962,20.530934826761914,-0.7611408444724743
4.524,16.961682850028186,20.417223725651308,17.223496954731086,-0.18933216776625472
4.5280000000000005,25.30070250401929,24.925662704030998,28.98876111038868,3.8958235498937324
4.532,21.836354849430073,31.750796825273497,18.27057875181968,-1.9726966340925047
4.5360000000000005,20.635005156093634,31.425774124728708,11.399267815339922,-15.38450985563978
4.54,28.908119546527328,31.274893834325166,6.019907490790741,-15.349352242451078
4.5440000000000005,32.206083942688245,28.188396877944914,12.812015849147283,-0.47205181088912074
4.548,22.22540838065269,30.999257563785086,-0.3492551991344297,-8.165078395438101
4.5520000000000005,33.383515233979836,27.133652804534886,-2.2875206739837792,5.033375489858427
4.556,35.85866179002658,28.014827735438537,-2.583477328131239,3.7651149826053336
4.5600000000000005,32.7395377796345,20.63073715768348,-14.176996805503894,17.595789785560054
4.564,42.893985310953354,19.067511151129697,-15.639908999216246,5.970748511597593
4.5680000000000005,36.9622911016426,11.442041439267356,-18.179383098433355,13.421940078786488
4.572,39.94230387418861,12.256229379767676,-16.22912245699331,4.605538797148626
4.5760000000000005,39.951603414439916,4.133553747375332,-17.006812891013787,0.00764193552816228
4.58,42.29429151300807,-1.8102352438807654,-20.121698982177413,-15.729395429681208
4.5840000000000005,38.02781229900035,0.5394028759763194,-16.568313202557317,-20.062837290689103
4.588,37.49181679459171,-4.186992889970192,-15.549837176191316,-11.083096985619294
4.5920000000000005,53.73458394717082,-5.713939619474166,-17.023135516631427,-7.20874893793703
4.596,42.481640381238975,-15.94302366651982,-3.6857934563060883,-10.443525879705444
4.6000000000000005,42.595864067476214,-15.593293334590596,9.460958804165966,-5.4434670523810835
4.604,37.50213137364514,-18.32551123259712,0.5552020398415358,7.624899890147595
4.6080000000000005,45.66859743996222,-21.82314050696863,5.769924934020791,11.257551657305804
4.612,42.71884824335587,-30.597005207059418,9.337303260355254,9.291561982343097
4.616,57.89064132668223,-27.54289866542969,20.50951740365558,12.949279130590837
4.62,54.95042186812674,-27.64791604158729,21.26355759688516,0.006841044324295886
4.624,46.55530048430218,-29.94279184467794,19.16784610648314,-0.5263422497916992
4.628,61.22665265875101,-40.24072760745568,15.055649706378922,4.558142502071454
4.632,54.71550789211662,-28.1590010451309,18.558425007520327,-7.363521778058334
4.636,47.898914367289464,-16.394579981641215,7.58715421883707,-9.1913099343518
4.64,36.61733396206661,-27.130034108845845,12.472837880137114,2.019167766887092
4.644,60.03629950868742,-26.26792691135993,11.720112984133204,-13.842181888530721
4.648,40.97822711705087,-17.544936048526793,-3.7493310118814587,1.495252961561178
4.652,38.92253305985877,-14.193347846506036,-10.169256055433811,10.806830270688467
4.656,51.36671250177117,-5.7775341780342835,0.5346984047810555,5.221181426793907
4.66,57.44011465499733,-13.750037394489826,-14.814503243372318,13.808719097225739
4.664,51.035925414300316,0.6460498173376492,-9.730525625796059,4.912775021232544
4.668,45.69587840994438,4.459439851650105,-18.866529375309728,4.271470449920864
4.672,44.50356666811731,5.280566730728911,-20.455519099280323,5.606077607085375
4.676,44.345427037445305,12.032724284843951,-17.768471071082217,2.7395010299101075
4.68,42.32030508772355,19.59989763104299,-23.441124609635608,-0.273169960892627
4.684,38.28161298775547,22.599485830980633,-16.22407279256191,-1.2001275899628627
4.688,35.65350400970209,15.894174186267971,-15.598389192694654,-10.317500077058662
4.692,32.98762773221509,28.590968455292778,-16.23754069905974,-2.4752204791573797
4.696,27.614745120201885,26.49179969937507,-3.2863873696651584,-6.529060958262949
4.7,27.98588723028988,28.896065978932185,-1.3165390343893848,4.510456557941537
4.704,18.854933265736754,29.96656328124447,4.188673601072892,5.854980730277461
4.708,24.689461947814358,29.246416382123186,3.5842687649631406,10.671668790429539
4.712,18.03603749532001,35.67238025643498,21.647943957387668,12.09780665439289
4.716,15.20083246358538,28.33706387127529,21.270129441970926,1.0247454756711
4.72,19.305698390001464,21.54708093206498,23.841909746762717,0.25724322862151183
4.724,23.00719192208346,22.950227696025724,18.433311056356988,1.7660395347311941
4.728,18.239179805877967,23.018867104797767,10.999830567056724,-12.117640925052354
4.732,3.361035029353121,24.976814760206025,27.861127961767956,-3.5490769117590926
4.736,3.8030122659122148,18.124169473817705,15.104777315487027,-5.465092675846004
4.74,10.970517618156196,6.791060186805353,8.011706065748808,-7.874712398562436
4.744,-1.146096691294498,19.154072411876413,9.446498926109502,-12.451141123076791
4.748,0.1333390221816113,3.583680720727842,8.342268611302718,4.413795822693883
4.752,1.4937557229562577,4.117149524157335,-2.6219174517123953,12.67295207023934
4.756,-8.608062550714994,-7.486694996367901,-0.9696152139970247,7.580855196517021
4.76,-5.739784147485086,-8.37694035701234,-6.3407053532647,12.063242055207557
4.764,-15.421280423354698,-10.911353526480596,-20.79217079252591,10.831565781267155
4.768,-14.220376267224847,-12.739767279949332,-21.46549157761777,10.356978372751891
4.772,-12.048687105153492,-16.838551993854132,-14.858059198174981,3.0834517437145674
4.776,-24.01214915801859,-20.556891975509366,-33.52359738761766,-1.4261535348614323
4.78,-16.20385394443186,-28.720245229951274,-19.76840879172813,-1.3492645204376004
4.784,-20.81696804429743,-31.61438388030136,-24.040714518163725,2.6798502848220593
4.788,-20.216543258988654,-28.050805219278516,-16.073711125741298,-16.9806234562914
4.792,-24.061589411464595,-25.331990964409144,-11.12917392718098,-8.962341677035385
4.796,-20.499015186844268,-30.714181830119067,-6.76501963283401,-10.719839167176996
4.8,-28.763140101384025,-23.20583566028274,-2.761306260563278,7.9601244928801815
4.804,-33.53159577016135,-19.552158997106858,-0.5119205048469544,1.8788468944176788
4.808,-32.6891058565511,-29.071782116883064,21.094629816126982,1.2272752860907197
4.812,-32.41600834476061,-25.793874265618747,23.028252139380914,13.171202278525616
4.816,-36.63135551627991,-18.93978422536523,11.0762294087587,17.7698260983759
4.82,-38.32270368277016,-12.914546882105402,26.931714082420875,9.195841865728621
4.824,-43.588307682577394,-12.96212276407095,17.963207116201104,2.277321722053596
4.828,-44.84429954754549,0.7697139789038792,20.291682381232246,-1.6355409129671976
4.832,-49.88935916868092,0.6130047621984114,17.78017124983601,-0.630929113629823
4.836,-35.36667760581292,3.2080866867399576,12.11152164924609,-14.193868857357597
4.84,-51.460668800257295,0.28114899560255147,16.674966763880157,-10.069800683383086
4.844,-49.718386330702415,5.16213092297863,7.991923706576567,-9.108921801834333
4.848,-50.74156312248914,17.16028515024775,0.12390755519045182,-8.32622540810766
4.852,-43.45146756614658,8.748700716309447,-9.029611890288127,0.845022574564223
4.856,-50.05633503719379,27.690728470302986,-11.8304661222891,12.38407653919908
4.86,-42.87565217306577,24.539068543198756,-19.9626056238601,12.34357590491522
4.864,-52.89052440605188,43.67270002660101,-15.349147113439496,13.044425007828018
4.868,-48.41170964603962,40.5010304180788,-24.07986901074267,8.437510486024037
4.872,-54.141208898328244,28.901093969362652,-20.973547577166443,6.297864440489891
4.876,-39.270306571323864,29.44699916656109,-13.110025300513573,-5.256284047383643
4.88,-55.839328516561146,34.446525091870946,-13.024632461295393,-7.425401952560224
4.884,-48.13146197486526,36.80557912637617,-17.047942980553078,-8.088249339817061
4.888,-46.165412805732906,18.27859150586872,-14.12636574928974,-8.592687989873284
4.892,-46.794410691152144,15.115132219352782,-0.235700734929301,-6.842339980410808
4.896,-49.19552023605232,17.969325066193676,-2.370017141504433,-5.509213151099851
4.9,-48.201929313424735,20.547245484643174,-1.639032299382144,-1.887117005651178
4.904,-46.49738976293515,16.271763771183252,-2.156292842305562,20.606393156238283
4.908,-46.497068639188214,14.977165569135668,11.604439572857885,12.977215619682061
4.912,-39.87267562358875,-0.7477958725678455,17.83756098148816,12.046004664045833
4.916,-32.45657272551955,-10.82681645154441,13.728300887472274,7.882228033628074
4.92,-45.00385520014003,0.5300739695817294,20.477144101593073,3.6217583882057736
4.924,-47.66597743375458,-12.329539430346353,18.14266809399027,0.5993293670085316
4.928,-39.755831848587306,-22.52370675174108,18.725583018578764,-2.217101308913349
4.932,-24.81402234853357,-15.666511672231062,5.65743076150863,-17.107310148073452
4.936,-40.033824084244074,-16.01447758193386,14.301357836935514,-17.669820484160187
4.94,-26.031771269214023,-23.72568294388017,16.602551557889125,-12.69497710764609
4.944,-23.964294008090064,-28.015041616721955,4.205478275860887,-5.8097738753941375
4.948,-33.16445609327013,-28.549127365763447,2.7692965123625397,-3.683264607407682
4.952,-25.518532060411463,-31.001865799443973,-6.286418204744939,9.877505002145238
4.956,-18.116748382421946,-36.624243833996005,-5.560282672230288,-0.5665128756914912
4.96,-25.983322410023185,-33.51420523780033,-12.838321033530132,5.75383781493461
4.964,-22.873690133058254,-26.71164418197669,-20.106472558925827,17.423331212242392
4.968,-22.477087911603608,-26.421475566815896,-11.433783710994865,8.360729051133456
4.972,-22.305929812189937,-25.265213610251436,-15.001084946912798,8.105458440852086
4.976,-18.09846680418202,-28.564395373365873,-22.985068388206326,9.00290238070463
4.98,-18.554195692053728,-21.443928988539067,-16.532188778814216,-9.346874612433762
4.984,-9.815081684424424,-27.903393706017276,-14.199498495938318,-9.54484221362042
4.988,-11.361145611331072,-12.22108968010086,-10.479435943517593,-11.342401788937048
4.992,-3.84915618360717,-1.766958908243291,-18.106352962010106,-18.21624427743678
4.996,-10.29169414000658,-11.877428333832759,0.05923496186583499,-6.3695207597971875
5.0,1.6544011610721627,-2.929638366589423,-2.848494814628618,4.4053109369033665
5.0040000000000004,6.679860717033177,6.152301567173285,3.184658076091047,7.520484450078616
5.008,-4.950592470296613,15.175460619448126,22.824482243334792,11.538695101959888
5.0120000000000005,9.38156230527583,10.872349918027432,15.20030902217942,8.10272238108527
5.016,16.123843988086776,13.556816827473158,14.954946132804382,5.76778434463202
5.0200000000000005,6.3862892647868685,10.691797465780613,7.994658462123596,12.224130882417686
5.024,23.214941013040267,24.105843610639234,26.909355238297163,-1.2332533961446102
5.0280000000000005,19.327241205556273,36.315892840804466,12.91969666053063,-2.210835332881352
5.032,16.043624063068123,29.416660583521622,13.079346531822953,-6.888459024370079
5.0360000000000005,21.576942944258334,29.206648811127288,13.753503360076497,-2.5142874260013075
5.04,26.879318267694142,31.55121340668307,18.837764004350667,-4.653503374589638
5.0440000000000005,26.638758455127086,29.828548254552118,11.228690987021817,-13.32176416262207
5.048,31.05722741856949,25.083880126139515,1.7174771220850868,-8.424664705524043
5.0520000000000005,25.793146919333697,31.868715783422285,-0.9652043530919316,5.381447961994172
5.056,33.199602198652464,26.85460730136851,-10.364419518049282,6.523782822391205
5.0600000000000005,27.158782811909546,23.203463542941808,-11.057436598023084,7.234706243182859
5.064,35.45932093765174,15.103525886636326,-15.043581131624835,14.901011927259319
5.0680000000000005,33.19303082948129,22.909370061701416,-13.252691570913555,8.64242933820255
5.072,35.63677189388205,15.754781156463842,-14.809854402379043,3.9435324612939135
5.0760000000000005,46.99742841191145,5.423953878683274,-17.49064765753718,2.6458108681318606
5.08,47.672946878072075,8.76912127533912,-20.832868113633747,-7.753397497642122
5.0840000000000005,46.554878338012244,-3.2417570552264223,-13.177447038089207,-1.2056755972977902
5.088,39.23050738420029,-9.160709231813447,-14.150784449589024,-13.920505400447755
5.0920000000000005,44.18001638257194,-13.426823881618244,-15.044645325599767,-5.158633923309584
5.096,52.78193562272641,-22.642738584085333,-6.990236702852417,2.3516274522815035
5.1000000000000005,48.26141038295727,-15.275845666683153,0.4226349189223676,-6.886477446359755
5.104,59.86572964157219,-30.235223485657016,9.524876661620691,3.100860861754787
5.1080000000000005,50.829995375381515,-30.189228702455274,8.717432621248644,14.154316219448004
5.112,50.29454279284352,-36.84667683844126,7.644948562376017,15.766490022937866
5.1160000000000005,48.13498320498795,-28.720064540740587,17.170266926524736,8.19079252271873
5.12,50.569040945325,-30.220219823220074,19.588410526185758,2.204497054540637
5.124,49.23370302828808,-31.612165245149466,20.889722713079127,6.033011447297977
5.128,53.50501701547242,-35.02122778895317,24.245102594345877,2.236499986061002
5.132,54.59019204113157,-34.822617932181565,23.19115724977015,-13.528449170319469
5.136,45.59312398229278,-25.135385860894655,12.439210493607685,-15.84244075211872
5.14,42.45819776864566,-28.082597423603033,8.674987755604835,-8.384281753033573
5.144,39.400559780217236,-21.045749814402193,2.1614974989160585,-3.6986678921423204
5.148,50.46604608543158,-23.837922277705076,6.000743022689196,-3.982244297799535
5.152,41.632693763773986,-14.849925184983682,4.737435870402968,5.88336797155983
5.156,35.48940737696069,-5.224819818536254,-8.937900693237967,3.2947880250998125
5.16,47.18424564595579,-4.5298676129817,-12.962857869474453,-1.062902832417132
5.164,56.57955890891168,-5.072920536619101,-8.076352071020363,7.703367145624066
5.168,42.8459782519833,2.7933243971730413,-15.5687517832451,8.021293160323777
5.172,45.72224883204909,4.787973542780346,-17.464566490568433,2.3020457273648116
5.176,40.48749603628159,10.378688618708923,-25.91511709843407,-7.0463486539403855
5.18,38.03121387283379,12.82455496230848,-15.627489979506276,-14.95609740231804
5.184,41.47103828284769,17.41623290141124,-21.532240212588864,-11.618714546499866
5.188,33.681125768999465,22.669737512007917,-19.361043048248895,-5.491988426034026
5.192,34.63755494207196,19.523384023605956,-11.36893136586804,-2.162292057951844
5.196,32.99305709551507,21.73584858958766,-7.902761360541591,1.121030179674177
5.2,26.048810346408512,21.58898271969848,-1.1079984719248828,-4.079547675742451
5.204,32.27992908439631,21.59922280371741,-2.231110429328048,-0.9509948771351642
5.208,24.30636129831076,23.911217865012087,14.429155014372395,10.92645232991946
5.212,19.200267233610703,30.51115530492021,19.32937359115588,13.15576734227234
5.216,23.401328267516263,24.29171609306176,7.149846139336338,11.049118550662596
5.22,13.913887725278896,29.7128838951364,23.91341935423561,-4.192463848263533
5.224,16.18808627720645,25.091445719637306,15.907891419457272,-3.0810905887738675
5.228,13.602001792645739,12.282872453555282,23.930622699487735,-3.829689478276513
5.232,16.643015876626908,22.1056187598294,17.754308585988277,-5.2690414546058095
5.236,11.12464411316368,19.162689277031554,15.554142675921286,-5.986335694274303
5.24,6.141526884489761,6.074423206365731,10.830216798743807,-8.789297551541503
5.244,7.855171772398497,8.829080542957142,13.423137074861256,-5.191552026595915
5.248,8.207542517253314,-2.0226870212078167,-3.691275391339027,-2.0625715798430555
5.252,1.5325467595924662,-1.7714522820958272,0.5325370223898616,5.91499574274008
5.256,-3.7145771771795477,-13.050614863256353,-1.8558402292462555,8.409799316741793
5.26,-12.82584283996567,-20.009268843213047,-8.174004643147086,9.839253463187848
5.264,-14.076721264140874,-17.022781997137997,-3.786770283898605,8.481028511600009
5.268,-12.739661569242452,-19.44938557009461,-20.74127486294345,8.111589552970953
5.272,-16.69515778666258,-24.113791988818114,-14.859220901606188,6.104202421042812
5.276,-16.98203700528746,-30.838029766986917,-20.490987745272566,0.08404460884777398
5.28,-18.12297800974864,-29.144306884636315,-12.854099944139804,-3.9737204311982524
5.284,-18.070315277880034,-27.409179907617556,-16.92500348864715,-2.334661217904266
5.288,-23.331486921369837,-29.938307921512276,-15.630321027885937,-8.654447670549763
5.292,-22.748651862656885,-29.085126173118425,-3.1047124626767113,-11.688271857386276
5.296,-26.99734526266317,-32.95115432850723,-7.431607438392108,-0.3995028110466352
5.3,-39.26659544639262,-22.673105915273947,-7.063628794502899,-6.830991688344705
5.304,-36.081245033628846,-32.69610940731176,2.3895633274280867,-0.5895301626791616
5.308,-34.021031150320596,-22.052376036082016,12.730238214976318,10.122515578620098
5.312,-41.18097220414782,-15.699815281837111,20.651135876509706,12.56225062321565
5.316,-33.8760122179274,-15.833368467094258,17.442205386522737,2.8230144071403194
5.32,-30.871907977071068,-15.465231358375739,25.612115662073208,3.9637651179909623
5.324,-33.98453998505724,-12.980772928550811,13.16965996117741,-1.7770868254543999
5.328,-42.597009314441586,-0.8108611602007931,17.42942769048416,-6.11462714125526
5.332,-35.42270212543269,-8.622204171701593,16.653665463550034,-2.987143546392943
5.336,-43.371224035737214,-1.8397698563613436,14.837467718153244,-6.290345189550605
5.34,-46.926782478891205,5.4729077874863545,12.17617698710123,-9.606176062220374
5.344,-49.320873659427576,17.92947879267594,10.817045840654131,-9.57528069486122
5.348,-48.66187522708379,17.654077079043,0.2826304804340909,-9.235147222749697
5.352,-49.86697354357503,14.571450054532225,-1.8115212365202533,9.587823565558093
5.356,-47.729505533856134,21.076002895158517,-7.588105505313864,9.806040560711516
5.36,-48.31149263118511,22.25822204457922,-16.38515456530546,5.977219642585928
5.364,-49.50784118406547,23.908290217459577,-15.978598300922595,13.420869995411453
5.368,-47.62198960842691,33.85589695778208,-18.814838698805847,7.354014324884967
5.372,-44.01124225809774,22.94962366928268,-20.471147839588994,2.245698002535125
5.376,-45.24828153298419,38.02258845788954,-19.801737285658167,0.9227253058047793
5.38,-57.3258262636631,33.6097659727838,-18.64276262283635,-9.585343772487798
5.384,-62.450171200510226,33.74402442980427,-19.048034405576576,-10.767053122211045
5.388,-44.662697654197096,24.154039232922624,-7.32736844871758,-9.372961963284997
5.392,-55.69779967048674,23.29730595073081,-15.48247662804932,-10.940535219446177
5.396,-49.392908951127104,13.913740021342187,-8.578648285647358,-1.4721106896802372
5.4,-53.40339094505452,15.010245533440026,13.899818121118367,9.345332518391892
5.404,-55.72634931073081,16.255670056860474,-0.21615903164933759,1.046046077981182
5.408,-43.05474499002183,16.108623603122812,2.866300108485479,0.11765277349990733
5.412,-40.8962954060499,-0.28509231475332975,17.363325843579194,-0.028433553098651032
5.416,-46.39173973710991,-1.0736268216261196,6.500959241171184,8.295929817185083
5.42,-55.17160773582541,-4.516493108091375,17.84476077604075,2.5620295722941475
5.424,-43.54818477712141,-15.167504076482379,30.689659193947865,2.2926348409785966
5.428,-37.355401579818526,-9.474521221006453,11.921065403806754,-3.0182571667163707
5.432,-45.10712688067581,-20.01178206074153,8.18671862062667,-15.721216660828603
5.436,-35.09865164549964,-20.95730777891219,7.914358845727627,-18.897291654693817
5.44,-34.30390454229909,-25.375144142833022,16.247502887584606,-8.030898961221142
5.444,-29.456340580467103,-29.672492214407757,12.986374653622631,-6.16832688568711
5.448,-29.798613042659408,-27.787541132436598,-0.05627931360670235,-4.615988863481068
5.452,-33.22879216074563,-30.226999880280314,0.9093973487198905,-5.798819054013592
5.456,-20.27587398974249,-31.743297685688546,-0.41121441613431386,9.202427373112393
5.46,-24.880331570220918,-33.5831099612499,-2.818972973700234,15.870062890071214
5.464,-21.992311030096115,-27.720420353131036,-16.64194126141511,11.212784708381475
5.468,-24.23502313722605,-19.761781931237053,-29.603899637670008,3.4677629749330476
5.472,-19.448557414683506,-25.406076475890018,-23.750139626622328,3.9040063547019397
5.476,-19.2760926489865,-18.60806188954295,-22.094555543241736,-8.08390274031123
5.48,-13.299224657859572,-27.487522803627588,-20.31582430879502,-0.5880489537307811
5.484,-1.4269566250085006,-16.229261277334345,-17.825855515083756,-8.639048852012616
5.488,-14.370785170694655,-18.600314594383356,-8.096469128920045,-18.821051843048842
5.492,-13.085892731944625,-16.29587208497086,-3.2629313485967097,-9.946651057238753
5.496,4.84363572847994,-8.203624710917644,-5.832166012921108,-2.501029189846085
5.5,-1.0466183857598206,5.959496672067835,5.4924243802592505,-1.6652381048774552
5.5040000000000004,-0.8331477843110409,9.256846816971475,6.762104576452943,3.438058133816645
5.508,10.217609179541034,10.12627105758248,9.957603346346753,2.3212682197835406
5.5120000000000005,4.483201757353989,5.4499702000783135,18.22366290412344,12.812972219690982
5.516,19.115547593454636,16.036665216862758,17.247818751229904,5.80592452456449
5.5200000000000005,15.82412371493923,22.044913222369534,29.310186211391976,-4.904374362100674
5.524,12.412522038123225,24.466334111991547,12.768478734592602,-0.6029545177083482
5.5280000000000005,28.01868722505322,16.886544722682316,17.06989051911353,1.2245030510042336
5.532,16.540108726843137,23.578279033598797,17.46394656455067,-9.639779660757583
5.5360000000000005,25.566265192593388,28.997654886302218,17.60752830780562,-1.1329475816693204
5.54,25.584146607118292,32.622256400434075,18.095507481365473,-7.365725420209166
5.5440000000000005,32.76743794505871,18.903369168795415,7.240498217512131,-5.151680247884549
5.548,36.1710034399719,28.338332110040923,-4.604483576244766,-3.128890201236773
5.5520000000000005,30.556535630059358,28.467560054428283,1.7059048109888684,2.1454678328271615
5.556,28.585708726741423,29.973859628390922,-3.587697222984039,5.528352883689603
5.5600000000000005,36.52721601113002,26.579685204460855,-21.46499834274696,7.999218202539083
5.564,32.626874395634715,22.893212617071775,-15.42928552386959,12.477208317622686
5.5680000000000005,47.77950527443857,12.39212786851815,-26.047250202721862,3.0259762788050937
5.572,39.99709826224478,2.8912567441819697,-22.969000502084125,-1.698223616774714
5.5760000000000005,38.99035477929871,6.223294280212185,-24.474579203379403,-6.869307590020393
5.58,43.139797804425264,8.768156132972468,-14.974806834693272,4.350420215461376
5.5840000000000005,36.77355628582804,6.213369774322006,-16.302407639179467,-6.396556016307228
5.588,39.83400101500976,-1.6979462577691038,-20.118897122353843,-8.457806275881987
5.5920000000000005,51.764128170768075,-7.4816041802079125,-5.234743667247288,-13.73085260648712
5.596,43.43197572797363,-11.889197576714839,-12.142826862939682,-1.7008252376434747
5.6000000000000005,42.318270901347944,-20.41415130257859,1.6505689523555809,-0.5828567322657807
5.604,50.95234570430004,-21.7298005617332,0.9037443968392989,5.8883814466758855
5.6080000000000005,54.79192695172472,-15.701661916994667,7.806688069381915,3.560177675702497
5.612,52.92906376371875,-31.181526822007868,16.212295858765223,10.781611571370558
5.6160000000000005,54.66080395502949,-20.21582212323679,19.49380550533835,6.929102833627461
5.62,46.11736097856627,-31.07875829432096,25.70597569368283,2.0497967377739004
5.6240000000000006,42.88699887648159,-23.351523633742303,19.549266070208173,4.923864014679165
5.628,57.47114189180689,-36.842414363088,21.177999329390406,-11.369784569497142
5.632,48.193281262948,-26.031928159175177,15.907854437298983,-4.881251106186819
5.636,48.26890620255734,-31.141085858365727,16.32021426862993,-6.40044183952186
5.64,55.75533324567977,-32.406173724681665,13.953135285892934,-13.908783540708088
5.644,51.36273669273693,-21.534871210028342,6.870941816421434,-10.947113364949033
5.648,50.205528311277,-14.364319904103649,-6.512087749175784,-3.6020272779811573
5.652,57.97453851914865,-19.979946091806777,-0.8493101896312489,3.8970799239593
5.656,43.036269189822264,-19.236289807408795,-5.539683666916176,6.081196100215682
5.66,49.88055326370731,-7.91992043662062,-15.156572427589337,11.67837746391098
5.664,44.39962694623332,-3.4480280894228383,-21.83220003587789,18.63777076997402
5.668,44.21929420399887,4.248927683165663,-10.71714529680036,5.166548582009627
5.672,49.17213709185335,10.739272272254457,-17.188517460101725,-4.894654326670117
5.676,42.61752802499211,10.04221178887259,-21.105939723173975,2.876285579510189
5.68,41.21714253403789,23.730126797022105,-24.706294741640768,2.5387203567136023
5.684,42.23819255445762,19.35908265351447,-20.99563265214735,-7.084428709404323
5.688,33.30773484222805,19.87713821660238,-7.17799013464286,-15.419010661051077
5.692,29.104545035017683,16.432340726001435,-8.946763777694144,-9.062741071196198
5.696,26.16052209443012,25.50194512295699,-7.72673307830156,-10.410154162076157
5.7,19.557479667743472,26.849760761798784,2.548446156123712,3.2142774698151695
5.704,37.600752986415614,34.402102307643275,0.901806806065041,-1.9389152724754135
5.708,19.665118253179706,32.31004944644875,17.139288633436028,6.942635320879047
5.712,21.87272491314576,23.816997162736513,20.45494479305661,4.958578152813116
5.716,19.33471255021933,29.616925602576433,14.553688154026586,9.68239395033487
5.72,19.943261123279925,30.502467432625924,15.877779090748597,4.046144137236399
5.724,20.12586655305697,32.55803377281379,6.869868575104011,2.137142851894668
5.728,17.94996421766515,26.562913357816008,12.237841156816945,-3.5694927520149022
5.732,8.298150854624684,22.634974110278527,11.399192174531525,-12.638427566378574
5.736,7.91554437983222,15.409126022149024,16.086216560453146,-6.688487189641651
5.74,7.679561430656639,12.985296607657466,10.124536523643007,-9.754393422167242
5.744,2.522884645478985,12.975647332012375,0.6358136166175079,-11.788116098616511
5.748,9.293232652267077,-4.404082821560685,1.100844458963211,8.717733909380499
